ALV-7004 or ALV-7004/FAST Data
Date :	"3/27/2010"
Time :	"10:34:35 AM"
Samplename : 	"BSA 1 g/l in YCl3 8.3mM"
SampMemo(0) : 	""
SampMemo(1) : 	""
SampMemo(2) : 	""
SampMemo(3) : 	""
SampMemo(4) : 	""
SampMemo(5) : 	""
SampMemo(6) : 	""
SampMemo(7) : 	""
SampMemo(8) : 	""
SampMemo(9) : 	""
Temperature [K] :	     295.66026
Viscosity [cp]  :	       0.94310
Refractive Index:	       1.33200
Wavelength [nm] :	     632.80000
Angle [°]       :	      30.00000
Duration [s]    :	        70
Runs            :	         1
Mode            :	"C-CH0/1+1/0"
MeanCR0 [kHz]   :	     107.12142
MeanCR1 [kHz]   :	     131.49372
MeanCR2 [kHz]   :	       0.00000
MeanCR3 [kHz]   :	       0.00000

"Correlation"
  3.12500E-006	  9.56962E-001	  9.48842E-001	 -3.00000E+000	 -3.00000E+000
  6.25000E-006	  9.21245E-001	  8.48883E-001	 -3.00000E+000	 -3.00000E+000
  9.37500E-006	  8.94684E-001	  9.32600E-001	 -3.00000E+000	 -3.00000E+000
  1.25000E-005	  9.15506E-001	  8.33664E-001	 -3.00000E+000	 -3.00000E+000
  1.56250E-005	  9.68177E-001	  9.96809E-001	 -3.00000E+000	 -3.00000E+000
  1.87500E-005	  9.87515E-001	  9.85447E-001	 -3.00000E+000	 -3.00000E+000
  2.18750E-005	  9.28708E-001	  8.74474E-001	 -3.00000E+000	 -3.00000E+000
  2.50000E-005	  9.38001E-001	  9.04364E-001	 -3.00000E+000	 -3.00000E+000
  2.81250E-005	  9.34395E-001	  9.65641E-001	 -3.00000E+000	 -3.00000E+000
  3.12500E-005	  9.54885E-001	  9.21338E-001	 -3.00000E+000	 -3.00000E+000
  3.43750E-005	  9.12120E-001	  9.15517E-001	 -3.00000E+000	 -2.99974E+000
  3.75000E-005	  8.69140E-001	  8.30481E-001	 -3.00000E+000	 -3.00000E+000
  4.06250E-005	  9.60479E-001	  9.30421E-001	 -3.00000E+000	  1.57890E+000
  4.37500E-005	  9.45636E-001	  9.32800E-001	 -3.00000E+000	  2.05041E+000
  4.68750E-005	  9.55960E-001	  8.78759E-001	 -3.00000E+000	 -7.46954E-001
  5.00000E-005	  9.30884E-001	  9.13318E-001	 -3.00000E+000	  3.10215E+000
  5.62500E-005	  9.47693E-001	  9.35749E-001	 -3.00000E+000	  1.50891E+000
  6.25000E-005	  9.47224E-001	  9.60770E-001	 -3.00000E+000	  1.53876E+000
  6.87500E-005	  8.99268E-001	  9.29905E-001	 -2.91552E+000	  1.69000E+000
  7.50000E-005	  9.35719E-001	  8.96866E-001	  2.51995E+000	  1.15610E+000
  8.12500E-005	  9.33342E-001	  8.91846E-001	  1.29202E+000	  1.20394E+000
  8.75000E-005	  9.23715E-001	  9.06626E-001	  1.32279E+000	  1.20376E+000
  9.37500E-005	  9.30407E-001	  9.17252E-001	  1.24200E+000	  1.14729E+000
  1.00000E-004	  9.19008E-001	  9.20597E-001	  1.07261E+000	  1.08595E+000
  1.12500E-004	  9.47446E-001	  9.50545E-001	  1.11316E+000	  1.10918E+000
  1.25000E-004	  8.96362E-001	  9.35710E-001	  1.02956E+000	  1.10426E+000
  1.37500E-004	  9.34627E-001	  9.39523E-001	  9.66038E-001	  1.06107E+000
  1.50000E-004	  9.14544E-001	  9.17657E-001	  9.50866E-001	  1.06862E+000
  1.62500E-004	  9.48239E-001	  9.36245E-001	  9.49096E-001	  1.01697E+000
  1.75000E-004	  9.48980E-001	  9.40122E-001	  8.94005E-001	  1.01121E+000
  1.87500E-004	  9.12644E-001	  9.04219E-001	  9.78818E-001	  1.02290E+000
  2.00000E-004	  9.19406E-001	  9.13694E-001	  9.17276E-001	  9.92187E-001
  2.25000E-004	  9.14277E-001	  9.21767E-001	  9.29646E-001	  9.99382E-001
  2.50000E-004	  9.40228E-001	  9.45009E-001	  9.13277E-001	  9.94395E-001
  2.75000E-004	  9.31297E-001	  9.15482E-001	  9.29497E-001	  9.77461E-001
  3.00000E-004	  9.28755E-001	  9.13577E-001	  9.19948E-001	  9.78939E-001
  3.25000E-004	  9.22767E-001	  9.24119E-001	  9.26013E-001	  9.60577E-001
  3.50000E-004	  9.40671E-001	  9.32995E-001	  9.13850E-001	  9.76317E-001
  3.75000E-004	  9.31810E-001	  9.40601E-001	  9.42891E-001	  9.73050E-001
  4.00000E-004	  9.43054E-001	  9.54145E-001	  9.24231E-001	  9.61592E-001
  4.50000E-004	  9.22112E-001	  9.15189E-001	  9.29049E-001	  9.74800E-001
  5.00000E-004	  9.30543E-001	  9.20702E-001	  9.30239E-001	  9.74634E-001
  5.50000E-004	  9.27449E-001	  9.34943E-001	  9.33054E-001	  9.64709E-001
  6.00000E-004	  9.34507E-001	  9.28867E-001	  9.32530E-001	  9.65488E-001
  6.50000E-004	  9.35908E-001	  9.45926E-001	  9.23738E-001	  9.73117E-001
  7.00000E-004	  9.23258E-001	  9.20055E-001	  9.18660E-001	  9.54251E-001
  7.50000E-004	  9.25078E-001	  9.31576E-001	  9.24701E-001	  9.61781E-001
  8.00000E-004	  9.20171E-001	  9.19775E-001	  9.34211E-001	  9.56852E-001
  9.00000E-004	  9.31785E-001	  9.30837E-001	  9.35653E-001	  9.53822E-001
  1.00000E-003	  9.27136E-001	  9.25882E-001	  9.20787E-001	  9.49238E-001
  1.10000E-003	  9.22044E-001	  9.15504E-001	  9.23082E-001	  9.53980E-001
  1.20000E-003	  9.14656E-001	  9.10772E-001	  9.32800E-001	  9.48724E-001
  1.30000E-003	  9.26913E-001	  9.26071E-001	  9.16093E-001	  9.45023E-001
  1.40000E-003	  9.20733E-001	  9.22593E-001	  9.21087E-001	  9.48404E-001
  1.50000E-003	  9.21475E-001	  9.21164E-001	  9.08543E-001	  9.37959E-001
  1.60000E-003	  9.15980E-001	  9.12109E-001	  9.23253E-001	  9.34067E-001
  1.80000E-003	  9.22947E-001	  9.20404E-001	  9.22791E-001	  9.42377E-001
  2.00000E-003	  9.22528E-001	  9.23049E-001	  9.24999E-001	  9.40776E-001
  2.20000E-003	  9.21745E-001	  9.24884E-001	  9.27216E-001	  9.33987E-001
  2.40000E-003	  9.17663E-001	  9.18066E-001	  9.28907E-001	  9.40292E-001
  2.60000E-003	  9.18419E-001	  9.20483E-001	  9.22257E-001	  9.38074E-001
  2.80000E-003	  9.16833E-001	  9.23903E-001	  9.16773E-001	  9.35808E-001
  3.00000E-003	  9.08158E-001	  9.06092E-001	  9.19362E-001	  9.33661E-001
  3.20000E-003	  9.11966E-001	  9.05774E-001	  9.19468E-001	  9.31905E-001
  3.60000E-003	  9.08790E-001	  9.07616E-001	  9.21711E-001	  9.25313E-001
  4.00000E-003	  9.10245E-001	  9.13545E-001	  9.19032E-001	  9.26183E-001
  4.40000E-003	  9.02563E-001	  9.04141E-001	  9.18988E-001	  9.22702E-001
  4.80000E-003	  9.04018E-001	  9.03931E-001	  9.17155E-001	  9.21516E-001
  5.20000E-003	  9.01414E-001	  9.02014E-001	  9.09640E-001	  9.16095E-001
  5.60000E-003	  9.00076E-001	  8.98820E-001	  9.14088E-001	  9.11787E-001
  6.00000E-003	  8.97131E-001	  8.97684E-001	  9.12601E-001	  9.12654E-001
  6.40000E-003	  8.95562E-001	  8.93156E-001	  9.05703E-001	  9.15916E-001
  7.20000E-003	  8.93701E-001	  8.90694E-001	  9.06111E-001	  9.05970E-001
  8.00000E-003	  8.88535E-001	  8.88280E-001	  8.98066E-001	  9.02553E-001
  8.80000E-003	  8.82063E-001	  8.81534E-001	  9.02512E-001	  9.01524E-001
  9.60000E-003	  8.78470E-001	  8.79867E-001	  8.93594E-001	  8.96167E-001
  1.04000E-002	  8.71847E-001	  8.72083E-001	  8.87322E-001	  8.90312E-001
  1.12000E-002	  8.68024E-001	  8.68517E-001	  8.88456E-001	  8.85359E-001
  1.20000E-002	  8.66465E-001	  8.64020E-001	  8.83834E-001	  8.81932E-001
  1.28000E-002	  8.62830E-001	  8.62467E-001	  8.82778E-001	  8.75755E-001
  1.44000E-002	  8.53033E-001	  8.54450E-001	  8.72750E-001	  8.66322E-001
  1.60000E-002	  8.46036E-001	  8.45051E-001	  8.62138E-001	  8.65140E-001
  1.76000E-002	  8.38658E-001	  8.39269E-001	  8.56355E-001	  8.55813E-001
  1.92000E-002	  8.29710E-001	  8.30865E-001	  8.47190E-001	  8.46063E-001
  2.08000E-002	  8.23217E-001	  8.23593E-001	  8.45017E-001	  8.38642E-001
  2.24000E-002	  8.16545E-001	  8.16516E-001	  8.32101E-001	  8.28474E-001
  2.40000E-002	  8.08563E-001	  8.07427E-001	  8.24099E-001	  8.22624E-001
  2.56000E-002	  8.02263E-001	  8.01254E-001	  8.16586E-001	  8.15058E-001
  2.88000E-002	  7.84505E-001	  7.85126E-001	  8.01051E-001	  7.99103E-001
  3.20000E-002	  7.73671E-001	  7.73889E-001	  7.91629E-001	  7.84973E-001
  3.52000E-002	  7.60213E-001	  7.60197E-001	  7.74588E-001	  7.69706E-001
  3.84000E-002	  7.44945E-001	  7.44985E-001	  7.61936E-001	  7.59338E-001
  4.16000E-002	  7.31973E-001	  7.32019E-001	  7.49183E-001	  7.45905E-001
  4.48000E-002	  7.20270E-001	  7.21014E-001	  7.32549E-001	  7.33355E-001
  4.80000E-002	  7.08822E-001	  7.08970E-001	  7.22641E-001	  7.18918E-001
  5.12000E-002	  6.95432E-001	  6.96094E-001	  7.09472E-001	  7.06926E-001
  5.76000E-002	  6.71086E-001	  6.69806E-001	  6.85356E-001	  6.81832E-001
  6.40000E-002	  6.46801E-001	  6.46379E-001	  6.62564E-001	  6.59997E-001
  7.04000E-002	  6.26691E-001	  6.26069E-001	  6.38841E-001	  6.36661E-001
  7.68000E-002	  6.03760E-001	  6.03560E-001	  6.17281E-001	  6.13874E-001
  8.32000E-002	  5.82960E-001	  5.82991E-001	  5.96860E-001	  5.93291E-001
  8.96000E-002	  5.63595E-001	  5.63460E-001	  5.74989E-001	  5.73995E-001
  9.60000E-002	  5.44438E-001	  5.43948E-001	  5.55774E-001	  5.52943E-001
  1.02400E-001	  5.26389E-001	  5.26258E-001	  5.37524E-001	  5.35340E-001
  1.15200E-001	  4.92060E-001	  4.91993E-001	  5.01968E-001	  4.99362E-001
  1.28000E-001	  4.59103E-001	  4.58264E-001	  4.69014E-001	  4.67010E-001
  1.40800E-001	  4.29313E-001	  4.29013E-001	  4.37163E-001	  4.35042E-001
  1.53600E-001	  4.00365E-001	  3.99582E-001	  4.08732E-001	  4.07418E-001
  1.66400E-001	  3.74316E-001	  3.73662E-001	  3.81046E-001	  3.80466E-001
  1.79200E-001	  3.49602E-001	  3.49339E-001	  3.56857E-001	  3.56162E-001
  1.92000E-001	  3.27674E-001	  3.26888E-001	  3.33682E-001	  3.32611E-001
  2.04800E-001	  3.05993E-001	  3.06060E-001	  3.12147E-001	  3.11039E-001
  2.30400E-001	  2.66890E-001	  2.66482E-001	  2.72203E-001	  2.70967E-001
  2.56000E-001	  2.32682E-001	  2.32737E-001	  2.37911E-001	  2.35879E-001
  2.81600E-001	  2.03664E-001	  2.03306E-001	  2.09272E-001	  2.06286E-001
  3.07200E-001	  1.77847E-001	  1.78043E-001	  1.81844E-001	  1.80149E-001
  3.32800E-001	  1.55288E-001	  1.55107E-001	  1.58547E-001	  1.57680E-001
  3.58400E-001	  1.36225E-001	  1.36139E-001	  1.38852E-001	  1.38082E-001
  3.84000E-001	  1.19437E-001	  1.19573E-001	  1.21969E-001	  1.20860E-001
  4.09600E-001	  1.05098E-001	  1.05156E-001	  1.07481E-001	  1.06292E-001
  4.60800E-001	  8.04988E-002	  8.06889E-002	  8.23928E-002	  8.22787E-002
  5.12000E-001	  6.22037E-002	  6.20388E-002	  6.35430E-002	  6.32674E-002
  5.63200E-001	  4.81535E-002	  4.83704E-002	  4.92295E-002	  4.92004E-002
  6.14400E-001	  3.75720E-002	  3.74635E-002	  3.86895E-002	  3.85410E-002
  6.65600E-001	  3.01340E-002	  3.02034E-002	  3.04898E-002	  3.05201E-002
  7.16800E-001	  2.34209E-002	  2.31521E-002	  2.38225E-002	  2.38259E-002
  7.68000E-001	  1.78508E-002	  1.76135E-002	  1.78530E-002	  1.79799E-002
  8.19200E-001	  1.39334E-002	  1.39197E-002	  1.41695E-002	  1.40362E-002
  9.21600E-001	  8.60900E-003	  8.71851E-003	  8.44985E-003	  9.02044E-003
  1.02400E+000	  5.45342E-003	  5.40422E-003	  5.28702E-003	  6.24494E-003
  1.12640E+000	  2.83593E-003	  2.76240E-003	  2.62998E-003	  3.30103E-003
  1.22880E+000	  9.30177E-004	  9.05106E-004	  7.65739E-004	  1.14767E-003
  1.33120E+000	  6.82239E-005	  1.15801E-004	 -1.94592E-004	  3.61456E-004
  1.43360E+000	 -1.59514E-004	 -9.24723E-005	  1.48272E-005	 -2.95919E-004
  1.53600E+000	 -8.09190E-005	 -5.20585E-004	  3.40044E-004	 -3.03187E-004
  1.63840E+000	  5.15177E-005	 -3.93846E-004	 -1.47146E-004	  8.59062E-005
  1.84320E+000	  3.04666E-004	  6.70013E-004	 -2.08224E-004	  8.99630E-004
  2.04800E+000	  2.50867E-004	  7.52099E-004	 -3.63159E-004	  1.03088E-004
  2.25280E+000	 -7.38934E-004	 -6.09236E-004	 -1.06816E-003	 -3.51843E-004
  2.45760E+000	 -4.16624E-004	 -1.94097E-004	 -2.77407E-004	 -6.44833E-004
  2.66240E+000	  8.17340E-004	  3.50663E-004	  4.89320E-004	  9.49724E-004
  2.86720E+000	  9.02307E-004	  6.24042E-005	  9.60692E-004	  1.25729E-003
  3.07200E+000	  1.18841E-003	  9.59282E-004	  1.45932E-003	  1.06331E-003
  3.27680E+000	  8.50283E-004	  9.55469E-004	  9.29298E-004	  8.56057E-004
  3.68640E+000	 -3.09648E-004	 -1.89069E-005	  7.95502E-005	 -6.05839E-004
  4.09600E+000	 -7.76007E-005	  4.21440E-004	  1.63286E-004	 -5.36954E-004
  4.50560E+000	  2.25221E-004	 -1.60938E-004	  1.18985E-004	  4.81182E-004
  4.91520E+000	 -1.12039E-003	 -1.36205E-003	 -1.67155E-003	 -9.65861E-004
  5.32480E+000	 -3.06925E-004	 -2.95850E-004	 -2.13219E-004	 -3.36116E-004
  5.73440E+000	 -2.67407E-004	 -2.45636E-004	 -1.52581E-004	 -3.87203E-004
  6.14400E+000	 -8.43504E-004	 -8.91793E-004	 -8.30567E-004	 -8.34391E-004
  6.55360E+000	 -4.18257E-004	 -3.67776E-004	 -1.32128E-004	 -6.86171E-004
  7.37280E+000	  7.71822E-005	 -2.27638E-004	  3.16686E-004	  4.07750E-005
  8.19200E+000	  1.89613E-003	  1.90855E-003	  2.04354E-003	  1.80655E-003
  9.01120E+000	  9.80512E-004	  1.06451E-003	  8.74323E-004	  1.08913E-003
  9.83040E+000	  4.99891E-004	  5.13535E-004	  2.00327E-004	  5.39280E-004
  1.06496E+001	 -1.98668E-004	 -9.79303E-005	 -7.79204E-004	  2.27996E-004
  1.14688E+001	  1.54802E-004	  4.86382E-005	 -2.15659E-004	  5.29834E-004
  1.22880E+001	 -1.35742E-004	 -3.48454E-004	 -7.00360E-005	 -8.63864E-005
  1.31072E+001	 -1.15037E-006	 -1.25548E-004	  7.59110E-005	 -6.45496E-005
  1.47456E+001	  3.76416E-004	  2.72635E-004	  2.11195E-004	  3.98116E-004
  1.63840E+001	  1.33088E-003	  1.42063E-003	  1.03396E-003	  1.42944E-003
  1.80224E+001	  3.51213E-004	  3.06402E-004	  2.75766E-004	  4.96077E-004
  1.96608E+001	  2.75071E-004	  2.44176E-004	  2.40137E-004	  2.27198E-004
  2.12992E+001	  2.30965E-004	 -1.13700E-004	 -8.38917E-005	  5.34402E-004
  2.29376E+001	 -4.11478E-005	 -1.47986E-004	 -3.93161E-004	  1.38847E-004
  2.45760E+001	 -1.34030E-004	 -3.61190E-004	 -1.12343E-004	 -6.15891E-005
  2.62144E+001	 -5.07321E-004	 -6.45548E-004	 -4.79864E-004	 -4.97640E-004
  2.94912E+001	  1.41030E-004	  2.32268E-004	  2.70518E-004	 -4.62166E-005
  3.27680E+001	  2.93464E-004	  4.58489E-004	  3.25427E-004	  2.47367E-004
  3.60448E+001	 -1.04136E-004	 -5.22027E-005	  9.11162E-005	 -2.34178E-004
  3.93216E+001	  9.43005E-004	  8.64953E-004	  9.28773E-004	  9.19421E-004
  4.25984E+001	  7.28733E-004	  6.89558E-004	  6.41747E-004	  7.91586E-004
  4.58752E+001	  2.46793E-004	  2.09427E-004	  1.84948E-004	  3.50237E-004
  4.91520E+001	  1.12701E-003	  1.03666E-003	  1.24739E-003	  1.08642E-003
  5.24288E+001	  5.52199E-004	  4.46187E-004	  6.16309E-004	  5.36224E-004
  5.89824E+001	  1.37514E-004	  1.04637E-004	  1.69554E-004	  1.80759E-004
  6.55360E+001	  3.28381E-004	  4.28566E-004	  2.32207E-004	  4.16608E-004
  7.20896E+001	 -4.96649E-004	 -4.25086E-004	 -5.10551E-004	 -4.12413E-004
  7.86432E+001	  1.50708E-004	  2.12278E-004	  1.27756E-004	  1.07370E-004
  8.51968E+001	  3.83886E-004	  4.17459E-004	  3.86599E-004	  4.62195E-004
  9.17504E+001	  5.10738E-004	  6.60049E-004	  3.36449E-004	  6.52160E-004
  9.83040E+001	  3.48953E-004	  3.60633E-004	  3.98889E-004	  3.47000E-004
  1.04858E+002	  2.17282E-004	  2.64739E-004	  1.98006E-004	  2.25308E-004
  1.17965E+002	  1.96150E-004	  2.18440E-004	  1.29055E-004	  2.48191E-004
  1.31072E+002	  2.61300E-004	  2.97514E-004	  2.42605E-004	  2.96027E-004
  1.44179E+002	  2.60869E-004	  1.75741E-004	  1.85729E-004	  3.13350E-004
  1.57286E+002	  4.01326E-004	  4.60367E-004	  3.79294E-004	  4.04516E-004
  1.70394E+002	  2.51089E-004	  2.02461E-004	  2.34895E-004	  2.37862E-004
  1.83501E+002	  1.41280E-004	  3.69582E-005	  1.10248E-004	  1.61878E-004
  1.96608E+002	  6.03979E-004	  5.54759E-004	  5.74549E-004	  5.62132E-004
  2.09715E+002	  4.70548E-004	  4.42134E-004	  4.25540E-004	  4.81555E-004
  2.35930E+002	  5.19829E-004	  4.82779E-004	  5.24674E-004	  4.92336E-004
  2.62144E+002	  1.43591E-004	  1.44290E-004	  1.92080E-004	  1.20707E-004
  2.88358E+002	  3.45418E-004	  4.15195E-004	  2.11675E-004	  4.86116E-004
  3.14573E+002	  3.15647E-004	  3.22470E-004	  3.03496E-004	  3.49355E-004
  3.40787E+002	 -2.04787E-004	 -1.38108E-004	 -1.94590E-004	 -2.10086E-004
  3.67002E+002	  1.10341E-004	  2.35957E-005	  1.28011E-004	  1.02535E-004
  3.93216E+002	 -7.94000E-005	 -5.91519E-006	 -1.18422E-004	 -2.45713E-005
  4.19430E+002	  1.36993E-004	  1.40720E-004	  1.32161E-004	  1.68880E-004
  4.71859E+002	  1.38403E-004	  1.81553E-004	  1.58372E-004	  1.58384E-004
  5.24288E+002	  4.38121E-004	  4.20524E-004	  4.55099E-004	  4.25393E-004
  5.76717E+002	  2.31031E-004	  2.31409E-004	  2.10753E-004	  2.56297E-004
  6.29146E+002	  2.30971E-004	  1.98900E-004	  1.96692E-004	  2.76826E-004
  6.81574E+002	  1.16147E-004	  8.15096E-005	  1.20289E-004	  1.27761E-004
  7.34003E+002	  3.04188E-004	  2.61265E-004	  3.09305E-004	  3.08828E-004
  7.86432E+002	  2.67452E-004	  2.90420E-004	  1.89247E-004	  3.45243E-004
  8.38861E+002	  2.90716E-004	  2.93937E-004	  2.74229E-004	  3.13193E-004
  9.43718E+002	  1.38901E-004	  1.27955E-004	  1.87173E-004	  9.50244E-005
  1.04858E+003	  3.47532E-004	  3.23196E-004	  3.50896E-004	  3.28026E-004
  1.15343E+003	  2.95102E-004	  2.99757E-004	  3.37012E-004	  2.56989E-004
  1.25829E+003	  1.26089E-004	  1.17151E-004	  1.16331E-004	  1.44217E-004
  1.36315E+003	  1.31616E-004	  1.07556E-004	  1.24574E-004	  1.39277E-004
  1.46801E+003	  1.46947E-004	  1.11602E-004	  1.14936E-004	  1.77015E-004
  1.57286E+003	  2.37297E-004	  2.56087E-004	  2.29536E-004	  2.48847E-004
  1.67772E+003	  2.49129E-004	  2.56480E-004	  2.44783E-004	  2.42605E-004
  1.88744E+003	  1.25586E-004	  1.26479E-004	  1.16115E-004	  1.16961E-004
  2.09715E+003	  1.01080E-004	  1.14443E-004	  1.06739E-004	  9.21219E-005
  2.30687E+003	  2.11382E-004	  2.37266E-004	  2.30364E-004	  2.05803E-004
  2.51658E+003	  1.41212E-004	  1.39870E-004	  1.42194E-004	  1.23712E-004
  2.72630E+003	  2.86003E-004	  3.07194E-004	  3.02644E-004	  2.75529E-004
  2.93601E+003	  1.44746E-004	  1.66469E-004	  1.39874E-004	  1.43657E-004
  3.14573E+003	  2.24041E-004	  2.12954E-004	  2.03467E-004	  2.46522E-004
  3.35544E+003	  2.25857E-004	  2.28713E-004	  2.27908E-004	  2.17927E-004
  3.77487E+003	  1.41108E-004	  1.34009E-004	  1.62123E-004	  1.20720E-004
  4.19430E+003	  1.50692E-004	  1.51777E-004	  1.61071E-004	  1.42958E-004
  4.61373E+003	  1.36086E-004	  1.39681E-004	  1.51855E-004	  1.21347E-004
  5.03317E+003	  1.25957E-004	  1.02438E-004	  1.57442E-004	  9.51696E-005
  5.45260E+003	  5.63138E-005	  3.87968E-005	  6.79217E-005	  4.97534E-005
  5.87203E+003	  1.74423E-004	  1.62396E-004	  1.99390E-004	  1.40794E-004
  6.29146E+003	  1.45160E-004	  1.41199E-004	  1.59148E-004	  1.35889E-004
  6.71089E+003	  1.61710E-004	  1.61370E-004	  1.57187E-004	  1.51062E-004
  7.54975E+003	  1.62293E-004	  1.70089E-004	  1.48947E-004	  1.72651E-004
  8.38861E+003	  1.73513E-004	  1.44349E-004	  1.75912E-004	  1.62837E-004
  9.22747E+003	  1.09965E-004	  1.00973E-004	  1.05116E-004	  1.19322E-004
  1.00663E+004	  1.26831E-004	  1.09193E-004	  1.27571E-004	  1.38909E-004
  1.09052E+004	  1.69687E-004	  1.38756E-004	  1.63708E-004	  1.85794E-004
  1.17441E+004	  8.28073E-005	  8.00042E-005	  9.10095E-005	  6.39393E-005

"Count Rate"
       0.27344	     104.96859	     129.76472	     104.96859	     129.76472
       0.54688	     103.29041	     128.05730	     103.29041	     128.05730
       0.82031	     107.69609	     133.04065	     107.69609	     133.04065
       1.09375	     107.46575	     131.08459	     107.46575	     131.08459
       1.36719	     106.70892	     129.83054	     106.70892	     129.83054
       1.64063	     109.34502	     134.43730	     109.34502	     134.43730
       1.91406	     106.78205	     132.94559	     106.78205	     132.94559
       2.18750	     109.00500	     135.28554	     109.00500	     135.28554
       2.46094	     108.05805	     132.31308	     108.05805	     132.31308
       2.73438	     107.07820	     133.26003	     107.07820	     133.26003
       3.00781	     107.72900	     132.78107	     107.72900	     132.78107
       3.28125	     108.18602	     133.84135	     108.18602	     133.84135
       3.55469	     112.30286	     136.10452	     112.30286	     136.10452
       3.82813	     106.17513	     129.41008	     106.17513	     129.41008
       4.10156	     106.42740	     128.61668	     106.42740	     128.61668
       4.37500	     102.75295	     127.70630	     102.75295	     127.70630
       4.64844	     109.61558	     135.85590	     109.61558	     135.85590
       4.92188	     106.10931	     130.43745	     106.10931	     130.43745
       5.19531	     101.18811	     126.82516	     101.18811	     126.82516
