ALV-7004 or ALV-7004/FAST Data
Date :	"3/27/2010"
Time :	"11:01:20 AM"
Samplename : 	"BSA 1 g/l in YCl3 8.3mM"
SampMemo(0) : 	""
SampMemo(1) : 	""
SampMemo(2) : 	""
SampMemo(3) : 	""
SampMemo(4) : 	""
SampMemo(5) : 	""
SampMemo(6) : 	""
SampMemo(7) : 	""
SampMemo(8) : 	""
SampMemo(9) : 	""
Temperature [K] :	     295.67948
Viscosity [cp]  :	       0.94269
Refractive Index:	       1.33200
Wavelength [nm] :	     632.80000
Angle [°]       :	     100.00000
Duration [s]    :	        70
Runs            :	         1
Mode            :	"C-CH0/1+1/0"
MeanCR0 [kHz]   :	      56.88183
MeanCR1 [kHz]   :	      68.43866
MeanCR2 [kHz]   :	       0.00000
MeanCR3 [kHz]   :	       0.00000

"Correlation"
  3.12500E-006	  2.74174E-001	  2.97127E-001	 -1.00000E+000	 -1.00000E+000
  6.25000E-006	  3.24199E-001	  3.10074E-001	 -1.00000E+000	 -1.00000E+000
  9.37500E-006	  2.67111E-001	  2.67700E-001	 -1.00000E+000	 -1.00000E+000
  1.25000E-005	  2.91830E-001	  3.14783E-001	 -1.00000E+000	 -1.00000E+000
  1.56250E-005	  3.54803E-001	  3.57157E-001	 -1.00000E+000	 -1.00000E+000
  1.87500E-005	  3.25376E-001	  3.17137E-001	 -1.00000E+000	 -1.00000E+000
  2.18750E-005	  3.25376E-001	  2.92418E-001	 -1.00000E+000	 -1.00000E+000
  2.50000E-005	  2.70054E-001	  2.32388E-001	 -1.00000E+000	 -1.00000E+000
  2.81250E-005	  3.87172E-001	  3.84229E-001	 -1.00000E+000	 -1.00000E+000
  3.12500E-005	  3.00069E-001	  3.25376E-001	 -1.00000E+000	 -1.00000E+000
  3.43750E-005	  3.18314E-001	  2.94772E-001	 -1.00000E+000	 -1.00000E+000
  3.75000E-005	  3.03600E-001	  3.17137E-001	 -1.00000E+000	 -1.00000E+000
  4.06250E-005	  3.80110E-001	  4.13656E-001	 -1.00000E+000	  7.79531E-001
  4.37500E-005	  3.13017E-001	  3.33616E-001	 -1.00000E+000	  9.10623E-001
  4.68750E-005	  2.53575E-001	  2.20617E-001	 -1.00000E+000	 -1.74313E-001
  5.00000E-005	  3.30967E-001	  3.30084E-001	 -1.00000E+000	  1.27308E+000
  5.62500E-005	  3.01835E-001	  3.18314E-001	 -1.00000E+000	  6.07350E-001
  6.25000E-005	  3.23316E-001	  3.26553E-001	 -1.00000E+000	  6.84146E-001
  6.87500E-005	  3.04189E-001	  3.00069E-001	 -9.61762E-001	  6.94908E-001
  7.50000E-005	  3.10074E-001	  3.11840E-001	  9.64996E-001	  4.70877E-001
  8.12500E-005	  3.21256E-001	  3.28907E-001	  4.90564E-001	  4.81638E-001
  8.75000E-005	  3.48329E-001	  3.41855E-001	  4.61532E-001	  5.23216E-001
  9.37500E-005	  3.26847E-001	  3.24788E-001	  3.80808E-001	  4.66963E-001
  1.00000E-004	  3.16695E-001	  3.22728E-001	  3.88597E-001	  4.29054E-001
  1.12500E-004	  3.22728E-001	  3.28907E-001	  3.87181E-001	  3.89678E-001
  1.25000E-004	  3.05660E-001	  2.94478E-001	  3.80808E-001	  4.17559E-001
  1.37500E-004	  2.89917E-001	  2.83296E-001	  3.44340E-001	  4.19271E-001
  1.50000E-004	  3.13164E-001	  3.11546E-001	  3.42924E-001	  3.97993E-001
  1.62500E-004	  3.16401E-001	  3.00952E-001	  2.91232E-001	  3.97259E-001
  1.75000E-004	  3.01688E-001	  3.30967E-001	  3.01146E-001	  3.67910E-001
  1.87500E-004	  3.13017E-001	  3.15077E-001	  3.14600E-001	  3.71090E-001
  2.00000E-004	  3.27436E-001	  3.25965E-001	  3.07519E-001	  3.66443E-001
  2.25000E-004	  3.01614E-001	  2.99628E-001	  3.24691E-001	  3.71457E-001
  2.50000E-004	  2.87416E-001	  2.90506E-001	  3.06280E-001	  3.53480E-001
  2.75000E-004	  3.29202E-001	  3.32880E-001	  3.08581E-001	  3.41129E-001
  3.00000E-004	  3.18902E-001	  3.11840E-001	  2.80965E-001	  3.19974E-001
  3.25000E-004	  3.18019E-001	  3.17872E-001	  3.22389E-001	  3.08112E-001
  3.50000E-004	  3.12061E-001	  2.94478E-001	  3.07519E-001	  3.16672E-001
  3.75000E-004	  3.10074E-001	  3.09339E-001	  3.11945E-001	  3.29512E-001
  4.00000E-004	  3.16217E-001	  3.10295E-001	  3.13184E-001	  3.21013E-001
  4.50000E-004	  3.08382E-001	  3.05807E-001	  3.11059E-001	  3.41129E-001
  5.00000E-004	  3.17210E-001	  3.12281E-001	  3.06634E-001	  3.41068E-001
  5.50000E-004	  3.02791E-001	  2.89108E-001	  3.00880E-001	  3.14715E-001
  6.00000E-004	  3.07315E-001	  2.91315E-001	  3.05926E-001	  3.15816E-001
  6.50000E-004	  3.02276E-001	  3.16695E-001	  3.08847E-001	  3.24804E-001
  7.00000E-004	  3.01724E-001	  2.97568E-001	  3.19203E-001	  3.01814E-001
  7.50000E-004	  2.92418E-001	  2.84694E-001	  2.84151E-001	  3.31774E-001
  8.00000E-004	  2.90947E-001	  2.98708E-001	  2.99420E-001	  3.20860E-001
  9.00000E-004	  3.01724E-001	  3.06065E-001	  3.07076E-001	  3.23306E-001
  1.00000E-003	  2.97347E-001	  3.08309E-001	  2.92206E-001	  3.10221E-001
  1.10000E-003	  2.99609E-001	  2.99517E-001	  3.01544E-001	  2.97259E-001
  1.20000E-003	  2.88869E-001	  2.88298E-001	  3.08581E-001	  3.09854E-001
  1.30000E-003	  2.91903E-001	  2.95766E-001	  2.92737E-001	  3.10252E-001
  1.40000E-003	  2.96722E-001	  2.95361E-001	  2.88798E-001	  3.02486E-001
  1.50000E-003	  2.95600E-001	  2.99922E-001	  2.77424E-001	  3.14104E-001
  1.60000E-003	  2.92630E-001	  2.90579E-001	  2.84682E-001	  3.11092E-001
  1.80000E-003	  2.83544E-001	  2.85650E-001	  2.88511E-001	  2.97259E-001
  2.00000E-003	  2.88630E-001	  2.89991E-001	  2.83333E-001	  2.99521E-001
  2.20000E-003	  2.74247E-001	  2.71452E-001	  2.76539E-001	  2.96907E-001
  2.40000E-003	  2.77668E-001	  2.84326E-001	  2.78885E-001	  2.94859E-001
  2.60000E-003	  2.78836E-001	  2.77870E-001	  2.62178E-001	  2.87139E-001
  2.80000E-003	  2.72491E-001	  2.70036E-001	  2.70255E-001	  2.85550E-001
  3.00000E-003	  2.75296E-001	  2.78018E-001	  2.69856E-001	  2.72083E-001
  3.20000E-003	  2.71190E-001	  2.70183E-001	  2.69093E-001	  2.76439E-001
  3.60000E-003	  2.62178E-001	  2.61253E-001	  2.64557E-001	  2.71815E-001
  4.00000E-003	  2.58113E-001	  2.56104E-001	  2.60020E-001	  2.67764E-001
  4.40000E-003	  2.50591E-001	  2.47800E-001	  2.59091E-001	  2.59732E-001
  4.80000E-003	  2.43046E-001	  2.45050E-001	  2.44508E-001	  2.57462E-001
  5.20000E-003	  2.50522E-001	  2.49097E-001	  2.44254E-001	  2.51378E-001
  5.60000E-003	  2.35202E-001	  2.36305E-001	  2.37051E-001	  2.44835E-001
  6.00000E-003	  2.33248E-001	  2.30880E-001	  2.36520E-001	  2.42795E-001
  6.40000E-003	  2.31514E-001	  2.30130E-001	  2.29655E-001	  2.35251E-001
  7.20000E-003	  2.23525E-001	  2.22902E-001	  2.24764E-001	  2.28479E-001
  8.00000E-003	  2.13722E-001	  2.14194E-001	  2.14541E-001	  2.20313E-001
  8.80000E-003	  2.07249E-001	  2.07338E-001	  2.07554E-001	  2.08581E-001
  9.60000E-003	  2.00097E-001	  2.00520E-001	  2.01662E-001	  2.05795E-001
  1.04000E-002	  1.91379E-001	  1.91439E-001	  1.88568E-001	  1.95947E-001
  1.12000E-002	  1.86183E-001	  1.87586E-001	  1.87860E-001	  1.90685E-001
  1.20000E-002	  1.79643E-001	  1.82459E-001	  1.74677E-001	  1.79090E-001
  1.28000E-002	  1.72611E-001	  1.72240E-001	  1.69761E-001	  1.73451E-001
  1.44000E-002	  1.59312E-001	  1.60986E-001	  1.58155E-001	  1.60793E-001
  1.60000E-002	  1.46305E-001	  1.45094E-001	  1.50241E-001	  1.49512E-001
  1.76000E-002	  1.36085E-001	  1.36599E-001	  1.36707E-001	  1.39478E-001
  1.92000E-002	  1.27231E-001	  1.26456E-001	  1.30019E-001	  1.28249E-001
  2.08000E-002	  1.18235E-001	  1.19272E-001	  1.17005E-001	  1.18863E-001
  2.24000E-002	  1.11358E-001	  1.12437E-001	  1.09849E-001	  1.13177E-001
  2.40000E-002	  1.02935E-001	  1.02009E-001	  1.00984E-001	  1.05076E-001
  2.56000E-002	  9.58052E-002	  9.66188E-002	  9.49202E-002	  9.59145E-002
  2.88000E-002	  8.11717E-002	  7.97134E-002	  8.24661E-002	  8.08721E-002
  3.20000E-002	  6.78246E-002	  6.83336E-002	  7.02844E-002	  7.00946E-002
  3.52000E-002	  6.04076E-002	  6.04849E-002	  6.04802E-002	  6.19911E-002
  3.84000E-002	  5.19474E-002	  5.14500E-002	  5.25126E-002	  5.27861E-002
  4.16000E-002	  4.45298E-002	  4.61579E-002	  4.64356E-002	  4.63192E-002
  4.48000E-002	  3.79634E-002	  3.79724E-002	  3.67780E-002	  3.91596E-002
  4.80000E-002	  3.30684E-002	  3.23963E-002	  3.61460E-002	  3.43617E-002
  5.12000E-002	  3.03392E-002	  2.97597E-002	  3.03320E-002	  2.96922E-002
  5.76000E-002	  2.24975E-002	  2.28577E-002	  2.35185E-002	  2.21449E-002
  6.40000E-002	  1.80519E-002	  1.80201E-002	  1.68731E-002	  1.63458E-002
  7.04000E-002	  1.29373E-002	  1.29722E-002	  1.19565E-002	  1.11634E-002
  7.68000E-002	  8.67765E-003	  8.86050E-003	  9.10331E-003	  9.56078E-003
  8.32000E-002	  7.67013E-003	  7.61849E-003	  7.96024E-003	  6.63112E-003
  8.96000E-002	  5.21628E-003	  6.26957E-003	  6.52813E-003	  4.77579E-003
  9.60000E-002	  4.52774E-003	  5.85634E-003	  4.60642E-003	  3.66421E-003
  1.02400E-001	  3.44842E-003	  3.96108E-003	  4.24858E-003	  4.05804E-003
  1.15200E-001	  2.08206E-003	  1.56035E-003	  1.43888E-003	  1.83653E-003
  1.28000E-001	  1.58101E-003	  1.22356E-003	  1.49144E-003	  1.00234E-003
  1.40800E-001	  3.71753E-004	  3.27250E-004	  9.96317E-004	  5.17723E-004
  1.53600E-001	  5.11990E-004	  7.91640E-004	  4.47987E-005	  9.24474E-004
  1.66400E-001	 -9.34987E-005	  8.32729E-005	 -3.04414E-004	  5.01243E-004
  1.79200E-001	  7.42708E-004	  8.30722E-004	 -1.05470E-003	 -7.05782E-005
  1.92000E-001	 -6.85663E-004	 -4.22211E-004	 -5.66151E-004	 -2.94852E-004
  2.04800E-001	  4.17079E-006	  2.31294E-004	  3.72242E-004	 -1.23990E-004
  2.30400E-001	  6.74817E-005	  7.34515E-004	 -6.86542E-004	 -7.22892E-004
  2.56000E-001	 -6.56166E-004	 -7.04420E-004	 -5.00022E-004	  2.24224E-005
  2.81600E-001	  3.05419E-004	  8.35815E-004	 -1.74853E-004	  1.26618E-004
  3.07200E-001	 -1.28816E-004	  2.51985E-004	 -3.86888E-005	  5.88662E-004
  3.32800E-001	  2.92443E-004	  4.45241E-004	 -1.08359E-004	  3.69492E-004
  3.58400E-001	 -3.43460E-005	  8.32272E-005	  3.35404E-004	  2.61416E-004
  3.84000E-001	 -2.99323E-004	 -3.89030E-004	 -1.05240E-003	  2.66641E-004
  4.09600E-001	 -1.91861E-004	 -2.42317E-004	 -1.83303E-004	 -1.51458E-004
  4.60800E-001	 -3.37013E-005	 -8.93628E-005	 -9.43104E-004	  7.57858E-004
  5.12000E-001	 -4.92557E-004	 -1.60379E-004	 -4.35815E-004	 -3.13305E-004
  5.63200E-001	 -2.92325E-004	  1.33015E-005	 -1.10908E-003	 -4.36370E-004
  6.14400E-001	 -2.31576E-004	 -6.61593E-004	  1.11715E-004	  7.60746E-005
  6.65600E-001	 -1.53256E-004	 -2.56506E-004	  3.77301E-005	  7.01039E-005
  7.16800E-001	 -1.94758E-004	 -1.78268E-004	 -8.07850E-004	 -4.31982E-004
  7.68000E-001	  4.98700E-005	 -5.25342E-004	  4.88049E-004	 -3.39155E-005
  8.19200E-001	 -2.69391E-004	 -4.89921E-004	 -1.44598E-004	 -3.33822E-004
  9.21600E-001	  5.96398E-005	 -6.91956E-005	 -2.67634E-005	 -1.55833E-004
  1.02400E+000	 -1.26099E-004	 -2.20139E-004	 -3.84784E-004	  1.50148E-004
  1.12640E+000	 -5.61512E-005	  1.12205E-004	 -2.52410E-004	  2.54350E-004
  1.22880E+000	  1.70858E-004	  1.18635E-004	  1.40291E-004	 -9.25521E-005
  1.33120E+000	 -1.68104E-005	 -2.14979E-005	  1.40815E-004	  1.33554E-004
  1.43360E+000	  1.91493E-005	  2.31441E-004	 -7.90768E-006	  2.44654E-004
  1.53600E+000	 -5.35074E-004	 -4.22582E-004	 -2.35126E-004	 -5.13660E-004
  1.63840E+000	 -1.63422E-004	 -8.46914E-005	  8.76091E-006	 -9.99553E-006
  1.84320E+000	  9.10028E-005	  3.29044E-004	  8.44387E-005	  1.32239E-004
  2.04800E+000	  4.65120E-005	  5.11635E-004	 -7.40319E-007	 -2.58624E-005
  2.25280E+000	 -1.54690E-004	 -6.59410E-005	  2.49469E-005	 -4.14460E-004
  2.45760E+000	 -3.31342E-004	 -4.64844E-004	 -4.73049E-004	 -2.41403E-004
  2.66240E+000	  5.69364E-005	 -1.63358E-004	  2.87032E-004	  8.62157E-005
  2.86720E+000	 -8.92295E-005	 -3.26249E-004	 -1.77244E-004	  6.10800E-005
  3.07200E+000	  8.27995E-005	  1.58215E-005	  3.72814E-004	  1.17093E-004
  3.27680E+000	  1.68521E-004	  1.73141E-004	  2.09159E-004	  3.43570E-005
  3.68640E+000	  8.67498E-005	 -5.38997E-005	 -5.86962E-005	  1.63589E-004
  4.09600E+000	 -8.64090E-005	 -2.11149E-004	 -1.95852E-004	 -5.86529E-005
  4.50560E+000	 -1.88915E-004	 -1.93367E-004	  6.36098E-005	 -2.78076E-004
  4.91520E+000	  1.13723E-005	 -7.59090E-005	 -1.51739E-004	  7.67318E-005
  5.32480E+000	  5.21623E-005	  4.34013E-005	  8.68669E-005	  7.08154E-005
  5.73440E+000	 -2.03854E-004	 -2.15524E-004	 -2.30249E-004	 -1.75262E-004
  6.14400E+000	 -1.78922E-004	 -2.06630E-004	  1.53280E-004	 -2.80653E-004
  6.55360E+000	 -2.06129E-004	 -2.38558E-004	 -4.11035E-005	 -3.05275E-004
  7.37280E+000	 -2.20976E-005	 -1.66498E-004	  2.54313E-005	 -9.72385E-005
  8.19200E+000	  6.33946E-006	  1.17872E-005	  2.67453E-005	 -8.41219E-005
  9.01120E+000	  9.79493E-005	  1.14289E-005	  1.17680E-004	  1.19445E-004
  9.83040E+000	 -2.43618E-005	 -6.95030E-005	 -9.70777E-005	 -1.38083E-004
  1.06496E+001	 -2.22817E-005	 -3.23067E-005	 -9.99041E-005	 -7.57930E-005
  1.14688E+001	 -1.62184E-004	 -1.13260E-004	 -1.93813E-004	  5.12499E-005
  1.22880E+001	 -1.23230E-004	 -1.34633E-004	 -2.47817E-005	 -3.49907E-005
  1.31072E+001	 -4.39122E-005	 -1.03395E-005	 -5.03706E-005	 -2.65349E-005
  1.47456E+001	  7.42145E-005	  1.50046E-004	 -9.35784E-005	  2.14585E-004
  1.63840E+001	  3.28398E-005	 -4.32514E-005	  2.25389E-004	 -2.82557E-006
  1.80224E+001	  6.34585E-005	 -1.04247E-005	  2.52768E-005	  1.13536E-004
  1.96608E+001	  1.66198E-005	 -4.02820E-005	  5.87826E-005	 -2.22915E-005
  2.12992E+001	  5.20835E-005	  6.38355E-005	  8.42570E-005	  4.31157E-005
  2.29376E+001	 -1.23754E-006	  4.95532E-005	  7.48387E-005	 -1.98337E-005
  2.45760E+001	  6.55799E-005	 -1.36993E-005	  1.65043E-004	 -5.13432E-005
  2.62144E+001	 -3.95889E-005	 -3.59276E-005	 -4.36704E-005	 -5.57144E-005
  2.94912E+001	  6.11172E-006	 -2.63568E-005	  3.75090E-006	  1.56103E-005
  3.27680E+001	 -1.12099E-004	 -9.82212E-005	 -1.68721E-004	 -2.35761E-005
  3.60448E+001	 -3.72041E-005	 -6.98310E-005	 -4.43445E-005	 -9.08511E-005
  3.93216E+001	  1.20839E-005	 -2.29438E-005	 -5.18884E-005	 -2.09992E-005
  4.25984E+001	 -2.68999E-005	 -7.04822E-006	 -8.22145E-005	 -3.07262E-005
  4.58752E+001	  5.33866E-005	  4.29591E-005	  1.06468E-005	  8.09575E-005
  4.91520E+001	 -9.17771E-005	 -9.62396E-005	 -7.67280E-005	 -6.44527E-005
  5.24288E+001	 -3.65550E-005	  2.32586E-005	  1.27247E-005	 -1.50748E-005
  5.89824E+001	  8.81273E-007	  1.38503E-005	  5.73741E-005	  6.45456E-005
  6.55360E+001	 -3.26049E-005	  3.38623E-005	 -4.34940E-005	  1.60796E-005
  7.20896E+001	  4.86122E-005	  5.38340E-005	  5.37796E-005	  5.04391E-005
  7.86432E+001	  4.71502E-006	 -3.17927E-005	 -1.30303E-006	  3.13503E-005
  8.51968E+001	  4.35028E-005	  4.10546E-005	 -3.48813E-005	  2.37728E-005
  9.17504E+001	  4.48026E-005	  3.99858E-005	  2.61516E-005	 -5.49368E-005
  9.83040E+001	 -4.43051E-005	 -4.88344E-005	 -6.23465E-005	  2.32764E-005
  1.04858E+002	  5.39914E-005	  3.75150E-005	  4.61600E-005	  3.43014E-005
  1.17965E+002	  1.83181E-005	  8.11106E-006	  1.34922E-005	 -2.01394E-007
  1.31072E+002	 -3.21848E-005	 -9.55064E-005	 -5.26658E-005	  8.10517E-006
  1.44179E+002	 -4.38318E-005	 -3.63880E-005	 -3.24770E-005	 -6.22220E-005
  1.57286E+002	 -4.94170E-005	 -7.27830E-005	 -6.41413E-005	 -2.62155E-005
  1.70394E+002	  3.60579E-005	  5.94956E-005	  6.82406E-005	 -2.34387E-006
  1.83501E+002	 -5.33158E-005	 -4.24399E-005	 -3.36398E-005	 -3.38919E-005
  1.96608E+002	  1.43861E-006	  2.57444E-005	  2.52115E-005	  6.77349E-006
  2.09715E+002	 -1.09634E-005	 -1.84412E-005	  1.36568E-005	 -1.07708E-005
  2.35930E+002	  2.85628E-006	  3.31210E-006	 -2.92325E-005	  2.11315E-005
  2.62144E+002	  1.77179E-005	  3.64073E-005	 -4.18906E-006	  2.71534E-005
  2.88358E+002	 -2.79734E-005	 -1.78031E-005	 -2.60569E-005	 -1.58347E-005
  3.14573E+002	 -3.30420E-005	 -4.48813E-005	 -3.70727E-005	  5.16257E-006
  3.40787E+002	 -9.03821E-006	 -1.32485E-005	  1.26694E-005	 -3.75654E-006
  3.67002E+002	  1.01068E-005	  1.32004E-005	  4.47693E-006	  3.91197E-005
  3.93216E+002	 -3.27694E-007	  1.28431E-005	 -6.29000E-006	 -4.06903E-005
  4.19430E+002	  3.12815E-006	  2.83999E-005	 -2.00451E-006	 -1.61497E-005
  4.71859E+002	  1.58461E-005	 -9.70717E-006	  1.10949E-006	  9.69509E-006
  5.24288E+002	 -6.50930E-006	 -6.75577E-006	  9.12687E-007	  1.97821E-005
  5.76717E+002	  2.18140E-006	 -1.33362E-005	  3.13609E-006	  2.01137E-005
  6.29146E+002	 -2.52992E-006	  1.25916E-005	 -2.09231E-005	 -1.91458E-005
  6.81574E+002	  1.70936E-006	 -4.51787E-007	 -9.17828E-006	 -5.76629E-008
  7.34003E+002	 -3.17293E-006	 -4.51147E-006	  1.55145E-005	  1.00861E-005
  7.86432E+002	 -1.85162E-005	 -4.83956E-006	 -1.27557E-005	 -5.95976E-006
  8.38861E+002	  2.79984E-006	  1.06734E-005	  1.14319E-005	  5.08330E-006
  9.43718E+002	  6.94636E-006	  1.28625E-006	  1.72963E-005	 -1.96331E-005
  1.04858E+003	  5.61352E-007	  6.92912E-006	  3.56281E-006	  7.82767E-006
  1.15343E+003	 -1.89699E-006	 -9.69339E-006	  1.88118E-006	  2.81523E-006
  1.25829E+003	  1.60018E-006	 -8.60149E-006	  8.61399E-006	 -7.67143E-006
  1.36315E+003	 -7.70968E-006	 -1.52826E-005	  6.96404E-006	  2.50887E-006
  1.46801E+003	 -1.52040E-005	 -2.10771E-005	 -1.07212E-005	 -1.55555E-005
  1.57286E+003	  5.92631E-007	  8.41272E-006	  4.82598E-007	  1.43285E-005
  1.67772E+003	  1.07962E-005	  1.12710E-005	 -4.06188E-006	  1.39853E-005
  1.88744E+003	 -5.30727E-006	 -3.82038E-006	 -2.48843E-006	 -6.93321E-006
  2.09715E+003	  8.12115E-007	  2.04368E-006	  9.16602E-006	  8.20886E-007
  2.30687E+003	  7.58152E-006	  1.24289E-005	  7.08770E-006	  4.68383E-006
  2.51658E+003	  7.37439E-006	  1.06659E-005	 -3.62000E-006	  8.49221E-006
  2.72630E+003	 -1.41754E-006	 -7.74664E-006	  1.72745E-007	 -1.13369E-005
  2.93601E+003	  2.00180E-006	  8.34322E-006	 -9.19368E-006	 -1.75003E-006
  3.14573E+003	 -7.35974E-007	 -2.49259E-006	 -1.57365E-006	 -6.64567E-006
  3.35544E+003	  6.18479E-006	  3.95474E-006	  4.96135E-006	 -6.89758E-007
  3.77487E+003	  4.55870E-006	 -6.73529E-007	  1.06820E-006	  3.39333E-006
  4.19430E+003	 -5.51649E-007	 -5.85752E-006	  1.81909E-006	 -7.23584E-006
  4.61373E+003	 -8.61879E-006	 -1.05447E-005	 -4.73849E-006	 -5.98029E-006
  5.03317E+003	  3.13813E-006	  4.48518E-006	  1.09988E-006	  3.72117E-006
  5.45260E+003	  4.61162E-006	  2.46179E-006	  6.24012E-006	  2.26347E-006
  5.87203E+003	  2.79051E-006	  1.83122E-006	  6.85608E-006	  2.07010E-006
  6.29146E+003	  8.45760E-006	  8.15254E-006	 -3.82793E-006	  1.06414E-005
  6.71089E+003	  6.21744E-007	  5.98660E-006	 -4.27075E-006	  1.48982E-006
  7.54975E+003	 -2.73922E-006	 -1.50834E-006	 -5.62410E-007	  1.58653E-007
  8.38861E+003	  1.94442E-006	  2.73301E-006	  5.30171E-007	 -2.96763E-006
  9.22747E+003	  4.87616E-006	  4.15538E-006	  2.60348E-006	  1.02485E-005
  1.00663E+004	  8.73868E-007	 -3.18497E-006	  5.00561E-006	  2.59694E-006
  1.09052E+004	 -4.58275E-006	 -5.89453E-006	 -1.03023E-005	  2.67808E-006
  1.17441E+004	  3.90516E-006	  2.16371E-007	  4.38688E-006	 -8.38459E-007

"Count Rate"
       0.27344	      56.66330	      67.17844	      56.66330	      67.17844
       0.54688	      56.54264	      68.37400	      56.54264	      68.37400
       0.82031	      57.16785	      68.81274	      57.16785	      68.81274
       1.09375	      56.71814	      68.24603	      56.71814	      68.24603
       1.36719	      55.24836	      67.31737	      55.24836	      67.31737
       1.64063	      57.78208	      69.00652	      57.78208	      69.00652
       1.91406	      56.96676	      68.50928	      56.96676	      68.50928
       2.18750	      55.87356	      68.49466	      55.87356	      68.49466
       2.46094	      56.33424	      67.78902	      56.33424	      67.78902
       2.73438	      56.52802	      67.66470	      56.52802	      67.66470
       3.00781	      56.42930	      67.36124	      56.42930	      67.36124
       3.28125	      57.36893	      69.09427	      57.36893	      69.09427
       3.55469	      57.03988	      68.72499	      57.03988	      68.72499
       3.82813	      56.78395	      68.43616	      56.78395	      68.43616
       4.10156	      56.12584	      67.88042	      56.12584	      67.88042
       4.37500	      57.03622	      68.52757	      57.03622	      68.52757
       4.64844	      57.44937	      68.49466	      57.44937	      68.49466
       4.92188	      57.05085	      68.51294	      57.05085	      68.51294
       5.19531	      56.04540	      66.91519	      56.04540	      66.91519
