ALV-7004 or ALV-7004/FAST Data
Date :	"3/27/2010"
Time :	"10:51:28 AM"
Samplename : 	"BSA 1 g/l in YCl3 8.3mM"
SampMemo(0) : 	""
SampMemo(1) : 	""
SampMemo(2) : 	""
SampMemo(3) : 	""
SampMemo(4) : 	""
SampMemo(5) : 	""
SampMemo(6) : 	""
SampMemo(7) : 	""
SampMemo(8) : 	""
SampMemo(9) : 	""
Temperature [K] :	     295.67312
Viscosity [cp]  :	       0.94292
Refractive Index:	       1.33200
Wavelength [nm] :	     632.80000
Angle [°]       :	      70.00000
Duration [s]    :	        70
Runs            :	         1
Mode            :	"C-CH0/1+1/0"
MeanCR0 [kHz]   :	      58.77837
MeanCR1 [kHz]   :	      71.05687
MeanCR2 [kHz]   :	       0.00000
MeanCR3 [kHz]   :	       0.00000

"Correlation"
  3.12500E-006	  9.20236E-001	  8.99752E-001	 -3.00000E+000	 -3.00000E+000
  6.25000E-006	  9.35732E-001	  8.63835E-001	 -3.00000E+000	 -3.00000E+000
  9.37500E-006	  8.97756E-001	  8.33084E-001	 -3.00000E+000	 -3.00000E+000
  1.25000E-005	  8.64176E-001	  8.77928E-001	 -3.00000E+000	 -3.00000E+000
  1.56250E-005	  9.84151E-001	  9.39165E-001	 -3.00000E+000	 -3.00000E+000
  1.87500E-005	  9.65157E-001	  9.53762E-001	 -3.00000E+000	 -3.00000E+000
  2.18750E-005	  9.04649E-001	  9.47899E-001	 -3.00000E+000	 -3.00000E+000
  2.50000E-005	  9.79210E-001	  1.12128E+000	 -3.00000E+000	 -3.00000E+000
  2.81250E-005	  9.68283E-001	  1.01351E+000	 -3.00000E+000	 -3.00000E+000
  3.12500E-005	  9.34746E-001	  9.11776E-001	 -3.00000E+000	 -3.00000E+000
  3.43750E-005	  8.73657E-001	  8.68014E-001	 -3.00000E+000	 -3.00000E+000
  3.75000E-005	  8.91705E-001	  8.70316E-001	 -3.00000E+000	 -3.00000E+000
  4.06250E-005	  1.04316E+000	  9.98131E-001	 -3.00000E+000	  2.04790E+000
  4.37500E-005	  9.50797E-001	  9.84268E-001	 -3.00000E+000	  2.61684E+000
  4.68750E-005	  9.65999E-001	  8.50494E-001	 -3.00000E+000	 -4.57424E-001
  5.00000E-005	  9.18412E-001	  8.81615E-001	 -3.00000E+000	  3.81987E+000
  5.62500E-005	  9.37085E-001	  8.97086E-001	 -3.00000E+000	  1.94619E+000
  6.25000E-005	  8.92476E-001	  8.78609E-001	 -3.00000E+000	  1.87609E+000
  6.87500E-005	  9.27834E-001	  9.12539E-001	 -2.87666E+000	  2.03788E+000
  7.50000E-005	  9.19036E-001	  9.41839E-001	  2.81517E+000	  1.51769E+000
  8.12500E-005	  1.00243E+000	  9.64562E-001	  1.39050E+000	  1.43813E+000
  8.75000E-005	  9.26918E-001	  9.03029E-001	  1.34284E+000	  1.35156E+000
  9.37500E-005	  8.84491E-001	  8.80032E-001	  1.25856E+000	  1.39336E+000
  1.00000E-004	  8.98478E-001	  9.16813E-001	  1.18460E+000	  1.29841E+000
  1.12500E-004	  9.56117E-001	  9.84457E-001	  1.15410E+000	  1.24236E+000
  1.25000E-004	  9.28487E-001	  9.26725E-001	  1.01672E+000	  1.20109E+000
  1.37500E-004	  9.68473E-001	  9.84475E-001	  9.70681E-001	  1.15187E+000
  1.50000E-004	  9.35207E-001	  9.14686E-001	  1.02799E+000	  1.08867E+000
  1.62500E-004	  9.25438E-001	  8.77193E-001	  9.43826E-001	  1.12109E+000
  1.75000E-004	  9.40511E-001	  9.81455E-001	  9.56090E-001	  1.06732E+000
  1.87500E-004	  9.52082E-001	  9.89392E-001	  9.52157E-001	  1.08229E+000
  2.00000E-004	  9.54792E-001	  9.52946E-001	  9.61410E-001	  1.08820E+000
  2.25000E-004	  9.23241E-001	  9.24919E-001	  9.48264E-001	  1.04683E+000
  2.50000E-004	  9.25341E-001	  9.21729E-001	  9.22137E-001	  1.02324E+000
  2.75000E-004	  9.27234E-001	  9.31822E-001	  9.09775E-001	  1.02121E+000
  3.00000E-004	  9.34809E-001	  9.44386E-001	  9.24887E-001	  9.82123E-001
  3.25000E-004	  9.51256E-001	  9.33567E-001	  9.54259E-001	  1.08701E+000
  3.50000E-004	  9.34835E-001	  9.51715E-001	  9.23364E-001	  1.01915E+000
  3.75000E-004	  9.25615E-001	  9.32586E-001	  8.90598E-001	  9.95567E-001
  4.00000E-004	  9.37940E-001	  9.39670E-001	  9.03103E-001	  9.89939E-001
  4.50000E-004	  9.23875E-001	  9.17027E-001	  9.33490E-001	  9.83593E-001
  5.00000E-004	  9.24335E-001	  9.41528E-001	  9.07012E-001	  9.70727E-001
  5.50000E-004	  9.24128E-001	  9.30250E-001	  8.96910E-001	  9.79730E-001
  6.00000E-004	  8.96953E-001	  8.97138E-001	  9.21761E-001	  9.97726E-001
  6.50000E-004	  9.42091E-001	  9.43829E-001	  9.14107E-001	  9.71966E-001
  7.00000E-004	  9.22536E-001	  9.29982E-001	  9.10130E-001	  9.74463E-001
  7.50000E-004	  9.05264E-001	  9.08562E-001	  9.37139E-001	  9.90991E-001
  8.00000E-004	  9.11732E-001	  9.26786E-001	  9.14319E-001	  9.64963E-001
  9.00000E-004	  9.18700E-001	  9.29417E-001	  9.07325E-001	  9.56027E-001
  1.00000E-003	  9.23149E-001	  9.13552E-001	  9.02036E-001	  9.79261E-001
  1.10000E-003	  9.13409E-001	  9.12244E-001	  9.00861E-001	  9.56313E-001
  1.20000E-003	  9.04273E-001	  9.06777E-001	  9.06748E-001	  9.33424E-001
  1.30000E-003	  8.95216E-001	  8.86135E-001	  8.85784E-001	  9.33855E-001
  1.40000E-003	  9.08640E-001	  9.06815E-001	  8.91656E-001	  9.41182E-001
  1.50000E-003	  8.99853E-001	  8.95983E-001	  9.01511E-001	  9.23284E-001
  1.60000E-003	  8.85576E-001	  8.81678E-001	  8.83942E-001	  9.19858E-001
  1.80000E-003	  8.90457E-001	  8.91600E-001	  8.68716E-001	  9.24160E-001
  2.00000E-003	  8.86132E-001	  8.84985E-001	  8.66299E-001	  9.19145E-001
  2.20000E-003	  8.72588E-001	  8.70278E-001	  8.78053E-001	  9.15345E-001
  2.40000E-003	  8.62175E-001	  8.54943E-001	  8.77643E-001	  9.02948E-001
  2.60000E-003	  8.66611E-001	  8.69484E-001	  8.72743E-001	  8.96888E-001
  2.80000E-003	  8.62065E-001	  8.56797E-001	  8.69338E-001	  8.94318E-001
  3.00000E-003	  8.56005E-001	  8.57445E-001	  8.59912E-001	  8.82133E-001
  3.20000E-003	  8.49243E-001	  8.54970E-001	  8.49438E-001	  8.78383E-001
  3.60000E-003	  8.38241E-001	  8.43810E-001	  8.48812E-001	  8.78900E-001
  4.00000E-003	  8.40865E-001	  8.48767E-001	  8.36605E-001	  8.55926E-001
  4.40000E-003	  8.32488E-001	  8.33236E-001	  8.26126E-001	  8.44200E-001
  4.80000E-003	  8.20736E-001	  8.22656E-001	  8.08322E-001	  8.46036E-001
  5.20000E-003	  8.14451E-001	  8.17069E-001	  8.12075E-001	  8.38572E-001
  5.60000E-003	  8.04351E-001	  8.09750E-001	  7.98132E-001	  8.29098E-001
  6.00000E-003	  7.88346E-001	  7.90851E-001	  8.02956E-001	  8.13212E-001
  6.40000E-003	  7.81969E-001	  7.79133E-001	  7.97218E-001	  8.05371E-001
  7.20000E-003	  7.64850E-001	  7.66597E-001	  7.70171E-001	  7.87707E-001
  8.00000E-003	  7.51410E-001	  7.47013E-001	  7.54930E-001	  7.73413E-001
  8.80000E-003	  7.38513E-001	  7.36883E-001	  7.43423E-001	  7.56789E-001
  9.60000E-003	  7.19567E-001	  7.22856E-001	  7.21627E-001	  7.36099E-001
  1.04000E-002	  7.05208E-001	  7.07532E-001	  7.11094E-001	  7.19660E-001
  1.12000E-002	  6.90263E-001	  6.88142E-001	  6.94347E-001	  7.02785E-001
  1.20000E-002	  6.70154E-001	  6.72581E-001	  6.80670E-001	  6.96487E-001
  1.28000E-002	  6.57539E-001	  6.59754E-001	  6.68601E-001	  6.80355E-001
  1.44000E-002	  6.32669E-001	  6.31353E-001	  6.39083E-001	  6.46215E-001
  1.60000E-002	  6.03953E-001	  6.04952E-001	  6.07731E-001	  6.24347E-001
  1.76000E-002	  5.78676E-001	  5.81370E-001	  5.92871E-001	  5.95397E-001
  1.92000E-002	  5.59121E-001	  5.58335E-001	  5.62772E-001	  5.70270E-001
  2.08000E-002	  5.30046E-001	  5.28637E-001	  5.40006E-001	  5.42678E-001
  2.24000E-002	  5.07839E-001	  5.05409E-001	  5.12352E-001	  5.16718E-001
  2.40000E-002	  4.88397E-001	  4.82754E-001	  4.96087E-001	  5.02664E-001
  2.56000E-002	  4.69697E-001	  4.67370E-001	  4.75913E-001	  4.79500E-001
  2.88000E-002	  4.29426E-001	  4.30516E-001	  4.39997E-001	  4.38763E-001
  3.20000E-002	  3.93492E-001	  3.91607E-001	  4.02508E-001	  4.06046E-001
  3.52000E-002	  3.61800E-001	  3.63702E-001	  3.69405E-001	  3.73513E-001
  3.84000E-002	  3.34842E-001	  3.33075E-001	  3.40866E-001	  3.40138E-001
  4.16000E-002	  3.07070E-001	  3.08392E-001	  3.12769E-001	  3.13740E-001
  4.48000E-002	  2.82052E-001	  2.83149E-001	  2.86787E-001	  2.90023E-001
  4.80000E-002	  2.57963E-001	  2.58103E-001	  2.63633E-001	  2.65641E-001
  5.12000E-002	  2.36404E-001	  2.35835E-001	  2.41726E-001	  2.42891E-001
  5.76000E-002	  2.00421E-001	  1.99296E-001	  2.05465E-001	  2.06405E-001
  6.40000E-002	  1.70837E-001	  1.71571E-001	  1.76138E-001	  1.72750E-001
  7.04000E-002	  1.43956E-001	  1.42985E-001	  1.44169E-001	  1.47557E-001
  7.68000E-002	  1.23716E-001	  1.23787E-001	  1.21925E-001	  1.22382E-001
  8.32000E-002	  1.01876E-001	  1.01446E-001	  1.06779E-001	  1.06208E-001
  8.96000E-002	  8.57037E-002	  8.39489E-002	  8.65864E-002	  9.01185E-002
  9.60000E-002	  7.29031E-002	  7.22885E-002	  7.24084E-002	  7.27678E-002
  1.02400E-001	  6.23489E-002	  6.15548E-002	  6.18877E-002	  6.32832E-002
  1.15200E-001	  4.42455E-002	  4.42919E-002	  4.59844E-002	  4.52467E-002
  1.28000E-001	  3.11845E-002	  3.05071E-002	  3.26381E-002	  3.31105E-002
  1.40800E-001	  2.23317E-002	  2.19729E-002	  2.23620E-002	  2.56948E-002
  1.53600E-001	  1.59853E-002	  1.49734E-002	  1.88435E-002	  1.71551E-002
  1.66400E-001	  1.22327E-002	  1.09664E-002	  1.18477E-002	  1.29337E-002
  1.79200E-001	  9.82423E-003	  9.72722E-003	  9.11494E-003	  9.07797E-003
  1.92000E-001	  6.63659E-003	  6.89058E-003	  5.39533E-003	  4.96745E-003
  2.04800E-001	  4.62093E-003	  4.04900E-003	  4.38810E-003	  3.90921E-003
  2.30400E-001	  2.39792E-003	  2.55512E-003	  3.28753E-003	  2.95472E-003
  2.56000E-001	  2.76788E-003	  3.41862E-003	  1.25955E-003	  1.96399E-003
  2.81600E-001	  1.15280E-003	  7.15621E-004	  2.57618E-003	  1.70832E-003
  3.07200E-001	  1.13045E-003	  5.53412E-004	  1.46052E-003	  1.63379E-003
  3.32800E-001	  1.49624E-003	  1.48108E-003	  1.45643E-004	  1.35615E-003
  3.58400E-001	  8.66196E-004	  6.68313E-004	 -1.59852E-004	  1.22481E-003
  3.84000E-001	  9.05972E-005	 -2.99370E-005	 -2.23158E-004	  6.40330E-004
  4.09600E-001	  6.99342E-004	  1.67907E-004	 -1.26153E-004	  4.89036E-004
  4.60800E-001	 -1.04268E-004	  5.97729E-005	  4.08214E-004	  3.80667E-004
  5.12000E-001	  1.57482E-004	  2.59727E-004	  9.12382E-005	 -1.11191E-003
  5.63200E-001	  6.69860E-004	  1.77470E-003	  1.06238E-003	  6.37453E-004
  6.14400E-001	  2.84640E-004	  5.45734E-004	  2.24642E-004	  1.04457E-003
  6.65600E-001	  7.23450E-004	  1.85836E-004	 -8.34659E-005	  8.80903E-005
  7.16800E-001	  1.86363E-004	  1.14470E-003	  4.75261E-004	  8.33217E-004
  7.68000E-001	  7.85780E-006	  9.66328E-004	  3.59948E-004	  6.12469E-005
  8.19200E-001	 -2.05958E-004	  2.79486E-004	  1.34705E-004	 -3.15386E-004
  9.21600E-001	  6.91469E-004	  8.03050E-004	 -2.88128E-004	  8.63752E-004
  1.02400E+000	  3.76761E-004	  5.50156E-004	  1.41725E-004	  4.49181E-004
  1.12640E+000	 -1.77183E-004	 -3.90126E-004	 -7.18322E-006	 -1.68560E-004
  1.22880E+000	 -6.32707E-006	 -9.06366E-004	  4.68411E-005	  5.74036E-004
  1.33120E+000	  1.73231E-004	  2.27040E-004	 -5.01857E-005	  4.08332E-004
  1.43360E+000	  2.10219E-004	  3.95287E-004	 -2.20336E-004	  1.88448E-004
  1.53600E+000	 -2.16832E-004	  1.13996E-004	 -5.94343E-006	  7.03427E-005
  1.63840E+000	  7.16394E-005	  1.16532E-004	 -4.33580E-004	  8.11795E-004
  1.84320E+000	  3.72252E-004	  6.43307E-005	  2.79898E-004	  5.24505E-004
  2.04800E+000	 -1.54531E-004	 -2.07356E-004	 -4.64411E-004	 -8.77574E-005
  2.25280E+000	  3.97064E-004	  7.68303E-004	  3.09159E-005	  6.89445E-005
  2.45760E+000	  5.52596E-004	  5.55909E-005	  5.59570E-004	  9.00643E-004
  2.66240E+000	 -1.38614E-004	 -3.53029E-004	  6.71730E-004	 -1.57141E-004
  2.86720E+000	  6.01266E-005	  2.50136E-004	 -1.09778E-003	  6.19902E-004
  3.07200E+000	  1.96675E-004	  2.83040E-004	  1.03445E-004	 -1.89190E-004
  3.27680E+000	  8.04372E-005	  7.18557E-005	  3.24467E-004	 -2.58302E-004
  3.68640E+000	  1.57854E-004	  9.96197E-005	  1.58830E-004	  9.07587E-005
  4.09600E+000	  1.35605E-004	  2.33040E-004	  6.16874E-005	 -1.47205E-004
  4.50560E+000	  8.33123E-005	  3.48247E-004	  1.67487E-004	 -4.67509E-004
  4.91520E+000	 -5.76798E-005	  2.68889E-004	 -3.23199E-006	  5.65256E-005
  5.32480E+000	 -1.18905E-004	 -3.76713E-004	  1.18006E-004	  1.22353E-005
  5.73440E+000	  5.82359E-004	  1.41087E-004	  4.14879E-004	 -7.39106E-005
  6.14400E+000	  7.57474E-005	 -1.72260E-004	 -3.05270E-004	  2.93759E-004
  6.55360E+000	  4.55191E-004	  2.00938E-004	  2.91945E-004	  2.44206E-004
  7.37280E+000	 -1.05177E-004	  8.70766E-005	 -9.11737E-005	 -3.44548E-004
  8.19200E+000	  2.67299E-004	  2.35922E-004	  2.67343E-004	 -1.58510E-005
  9.01120E+000	  1.75449E-004	  1.95113E-004	  8.48105E-005	  5.52257E-004
  9.83040E+000	 -1.28169E-004	  3.77929E-005	 -1.34331E-004	 -1.77189E-004
  1.06496E+001	 -4.25837E-004	 -3.27965E-004	 -4.22322E-004	 -5.15741E-004
  1.14688E+001	 -1.35961E-004	 -1.20752E-004	 -1.52029E-004	 -3.42958E-004
  1.22880E+001	  6.68796E-004	  5.33153E-004	  4.28108E-004	  9.00455E-004
  1.31072E+001	  2.72564E-004	  2.59160E-004	  4.20437E-004	  1.44425E-004
  1.47456E+001	 -9.73340E-005	 -1.47144E-004	 -1.10359E-005	 -4.82603E-005
  1.63840E+001	 -3.25934E-005	  9.21593E-005	 -1.90108E-004	 -5.00635E-005
  1.80224E+001	  4.22644E-004	  4.56165E-004	  4.31864E-004	  1.76417E-004
  1.96608E+001	  3.25371E-004	  3.48290E-004	  1.83420E-004	  1.85450E-004
  2.12992E+001	 -1.77752E-004	 -1.91791E-004	  5.77033E-005	 -4.13798E-004
  2.29376E+001	 -2.47184E-004	 -2.04326E-004	 -2.10682E-004	 -2.36029E-004
  2.45760E+001	  2.18160E-004	  1.28571E-004	  6.89599E-004	 -9.34051E-005
  2.62144E+001	  7.73809E-005	 -2.51208E-005	  2.63253E-004	  2.33095E-004
  2.94912E+001	  9.12585E-005	  8.32349E-005	  1.91999E-004	  1.44673E-004
  3.27680E+001	  9.71745E-006	 -9.30256E-005	 -8.77034E-005	  1.36062E-004
  3.60448E+001	  7.70095E-005	  1.27847E-004	  2.21386E-004	 -8.30466E-005
  3.93216E+001	 -1.41073E-004	 -1.00581E-004	 -3.53982E-005	 -2.03511E-004
  4.25984E+001	  1.15885E-004	  8.16874E-005	  1.88387E-004	  2.83413E-004
  4.58752E+001	  7.17769E-005	  8.14272E-005	 -4.20944E-006	  8.78266E-005
  4.91520E+001	 -3.48718E-005	 -1.51488E-005	 -3.11657E-005	  6.95743E-005
  5.24288E+001	  1.33168E-004	  8.69746E-005	  1.49992E-004	  1.04715E-004
  5.89824E+001	 -4.02407E-005	 -1.33664E-004	  1.92506E-005	 -8.64692E-005
  6.55360E+001	 -1.59028E-004	 -2.74590E-004	 -1.46337E-004	 -1.66290E-004
  7.20896E+001	  8.60990E-006	  9.58097E-005	  4.72709E-005	  4.14206E-005
  7.86432E+001	  1.12187E-004	  1.58977E-005	  1.31255E-004	 -7.90507E-006
  8.51968E+001	  5.16911E-005	  3.62271E-005	 -1.88044E-004	  1.29231E-004
  9.17504E+001	  5.68752E-005	  8.24168E-005	  6.03029E-005	  4.83442E-006
  9.83040E+001	  2.66510E-005	  5.55900E-005	 -4.25144E-005	  1.16043E-004
  1.04858E+002	 -1.28510E-005	 -1.07198E-005	  3.33394E-006	 -1.15111E-005
  1.17965E+002	 -7.06787E-005	 -2.34087E-005	 -5.76394E-005	 -1.57134E-005
  1.31072E+002	 -1.71018E-005	 -8.95933E-005	  2.72797E-005	 -4.24416E-005
  1.44179E+002	  3.43929E-005	  9.07030E-005	  1.64151E-005	  2.70308E-005
  1.57286E+002	 -8.40307E-005	 -9.21285E-005	 -6.18767E-005	 -6.56461E-005
  1.70394E+002	 -1.00857E-004	 -9.00881E-005	 -1.12599E-004	 -7.16716E-005
  1.83501E+002	  2.50197E-005	  6.31954E-005	  1.10228E-004	  6.18696E-006
  1.96608E+002	 -5.40795E-006	  3.07793E-005	  1.04565E-004	  2.62261E-005
  2.09715E+002	 -3.83959E-006	 -2.11670E-006	 -1.33781E-005	  4.27974E-005
  2.35930E+002	 -3.71061E-006	 -4.54571E-006	 -4.10513E-005	  1.76751E-005
  2.62144E+002	  5.21803E-005	  7.47119E-005	  4.54702E-005	  1.71902E-005
  2.88358E+002	 -2.74067E-005	 -2.12822E-005	 -1.58470E-005	 -5.79483E-005
  3.14573E+002	  3.05735E-006	  4.31201E-005	  3.21808E-006	  3.26756E-005
  3.40787E+002	 -4.09862E-005	 -5.37552E-005	 -8.65141E-005	 -3.32799E-005
  3.67002E+002	  1.87568E-005	 -1.70986E-005	  4.09781E-005	  3.93467E-005
  3.93216E+002	 -3.76478E-005	 -3.13443E-005	 -7.37520E-005	  1.44941E-005
  4.19430E+002	 -1.31776E-005	 -1.60908E-005	 -3.72622E-005	 -3.68327E-006
  4.71859E+002	  4.03328E-005	  5.30284E-005	  4.94163E-005	  4.79603E-005
  5.24288E+002	 -2.76084E-005	  2.05121E-005	 -3.28962E-005	  3.29740E-006
  5.76717E+002	 -2.55494E-005	 -3.48548E-006	 -7.21783E-005	 -4.77343E-005
  6.29146E+002	 -3.11477E-005	 -3.72764E-005	  1.14105E-005	 -4.83626E-005
  6.81574E+002	  3.73190E-005	  3.21538E-005	  1.92065E-005	  6.01970E-005
  7.34003E+002	  2.27169E-005	 -4.13692E-006	 -4.93566E-006	  6.73874E-005
  7.86432E+002	 -3.19863E-005	 -4.48540E-005	 -3.87551E-005	  1.53525E-005
  8.38861E+002	  1.30914E-005	  2.11022E-005	  4.34821E-005	  9.07395E-006
  9.43718E+002	 -2.82998E-005	 -5.59522E-005	 -2.44613E-005	 -6.65987E-005
  1.04858E+003	 -3.45798E-006	 -1.21375E-005	  8.27966E-006	  6.17444E-006
  1.15343E+003	  2.46693E-006	  1.40328E-005	  2.16716E-005	 -3.28784E-006
  1.25829E+003	 -1.70067E-005	 -3.97667E-005	  2.69158E-005	 -1.28549E-005
  1.36315E+003	 -1.92516E-006	  3.95181E-006	 -3.51174E-005	 -7.17749E-006
  1.46801E+003	  1.58817E-005	  2.02801E-005	  1.83404E-005	  2.77745E-005
  1.57286E+003	  9.33414E-006	 -2.17892E-005	  7.87034E-006	  2.41916E-005
  1.67772E+003	  1.60193E-005	  7.51223E-006	  2.05372E-005	  1.79189E-005
  1.88744E+003	  4.37054E-005	  3.65203E-005	  2.75731E-005	  4.93483E-005
  2.09715E+003	 -2.45903E-006	 -3.42079E-005	 -2.25904E-007	  3.87322E-006
  2.30687E+003	  1.78214E-005	  3.75376E-005	  2.56932E-005	  1.77460E-005
  2.51658E+003	 -1.45080E-005	 -1.23676E-005	 -8.30397E-007	 -3.60198E-005
  2.72630E+003	  1.32569E-006	 -1.39150E-005	 -9.23058E-006	  1.34451E-005
  2.93601E+003	 -1.40439E-005	 -5.22448E-006	 -3.11161E-005	 -4.46310E-006
  3.14573E+003	  1.78336E-005	  1.19063E-005	  1.59381E-005	  3.22414E-005
  3.35544E+003	 -2.01600E-005	 -1.36720E-005	 -2.39649E-006	 -2.33448E-005
  3.77487E+003	 -2.12296E-006	 -7.80223E-006	 -2.75416E-006	 -1.73101E-006
  4.19430E+003	  5.74128E-006	 -7.91818E-006	 -4.90715E-006	  1.54479E-005
  4.61373E+003	  2.00169E-005	  4.16874E-006	  1.91320E-005	  2.92712E-005
  5.03317E+003	 -1.29491E-005	 -1.54271E-005	 -5.49256E-006	  4.28812E-006
  5.45260E+003	  5.75063E-006	  8.45643E-006	 -2.04608E-005	  1.74483E-005
  5.87203E+003	  1.28576E-005	  4.95954E-006	  3.65285E-005	  9.69720E-006
  6.29146E+003	 -2.08562E-005	 -3.18418E-005	 -1.89341E-005	 -2.55865E-005
  6.71089E+003	 -4.86323E-006	 -1.36435E-005	 -2.61118E-006	 -1.66158E-005
  7.54975E+003	  1.46331E-005	  3.76655E-006	  9.21261E-006	  1.79071E-005
  8.38861E+003	 -3.24190E-006	 -4.80824E-006	 -1.09940E-005	 -9.32790E-006
  9.22747E+003	  4.02606E-006	  3.61482E-006	  1.77048E-006	  8.16428E-006
  1.00663E+004	 -1.74756E-005	 -2.06670E-005	 -1.39183E-005	 -1.15689E-005
  1.09052E+004	 -1.32197E-005	 -5.51282E-006	 -1.42719E-005	 -1.48909E-005
  1.17441E+004	 -1.42596E-006	 -2.60858E-006	 -1.93886E-005	 -4.86468E-006

"Count Rate"
       0.27344	      58.65956	      70.11800	      58.65956	      70.11800
       0.54688	      57.70530	      70.51652	      57.70530	      70.51652
       0.82031	      60.08181	      72.99174	      60.08181	      72.99174
       1.09375	      58.30857	      69.98637	      58.30857	      69.98637
       1.36719	      58.11114	      70.36662	      58.11114	      70.36662
       1.64063	      59.41273	      71.83640	      59.41273	      71.83640
       1.91406	      58.64494	      71.32453	      58.64494	      71.32453
       2.18750	      59.55167	      71.20753	      59.55167	      71.20753
       2.46094	      58.75462	      71.82908	      58.75462	      71.82908
       2.73438	      58.51697	      71.32453	      58.51697	      71.32453
       3.00781	      59.05809	      70.05584	      59.05809	      70.05584
       3.28125	      58.69613	      71.80349	      58.69613	      71.80349
       3.55469	      58.39997	      69.70485	      58.39997	      69.70485
       3.82813	      59.27014	      70.52017	      59.27014	      70.52017
       4.10156	      59.21896	      71.19291	      59.21896	      71.19291
