ALV-7004 or ALV-7004/FAST Data
Date :	"3/27/2010"
Time :	"11:48:40 AM"
Samplename : 	"BSA 4 g/l in YCl3 8.3mM"
SampMemo(0) : 	""
SampMemo(1) : 	""
SampMemo(2) : 	""
SampMemo(3) : 	""
SampMemo(4) : 	""
SampMemo(5) : 	""
SampMemo(6) : 	""
SampMemo(7) : 	""
SampMemo(8) : 	""
SampMemo(9) : 	""
Temperature [K] :	     295.72954
Viscosity [cp]  :	       0.94174
Refractive Index:	       1.33200
Wavelength [nm] :	     632.80000
Angle [°]       :	      30.00000
Duration [s]    :	        50
Runs            :	         1
Mode            :	"C-CH0/1+1/0"
MeanCR0 [kHz]   :	     423.27119
MeanCR1 [kHz]   :	     508.49081
MeanCR2 [kHz]   :	       0.00000
MeanCR3 [kHz]   :	       0.00000

"Correlation"
  3.12500E-006	  9.37072E-001	  9.33148E-001	 -3.00000E+000	 -3.00000E+000
  6.25000E-006	  9.07162E-001	  8.99423E-001	 -3.00000E+000	 -3.00000E+000
  9.37500E-006	  9.15140E-001	  9.29300E-001	 -3.00000E+000	 -3.00000E+000
  1.25000E-005	  8.90968E-001	  8.84209E-001	 -3.00000E+000	 -3.00000E+000
  1.56250E-005	  9.74898E-001	  9.83080E-001	 -3.00000E+000	 -3.00000E+000
  1.87500E-005	  9.82135E-001	  9.76927E-001	 -3.00000E+000	 -3.00000E+000
  2.18750E-005	  9.32747E-001	  9.45060E-001	 -3.00000E+000	 -3.00000E+000
  2.50000E-005	  9.60483E-001	  9.54768E-001	 -3.00000E+000	 -3.00000E+000
  2.81250E-005	  9.47404E-001	  9.47723E-001	 -3.00000E+000	 -3.00000E+000
  3.12500E-005	  9.57373E-001	  9.53021E-001	 -3.00000E+000	 -3.00000E+000
  3.43750E-005	  9.20256E-001	  9.16450E-001	 -3.00000E+000	 -2.99980E+000
  3.75000E-005	  9.53056E-001	  9.41207E-001	 -3.00000E+000	 -3.00000E+000
  4.06250E-005	  9.44910E-001	  9.53609E-001	 -3.00000E+000	  1.25237E+000
  4.37500E-005	  9.46307E-001	  9.70613E-001	 -3.00000E+000	  1.20816E+000
  4.68750E-005	  9.66296E-001	  9.40273E-001	 -3.00000E+000	 -9.26737E-001
  5.00000E-005	  9.58324E-001	  9.48996E-001	 -3.00000E+000	  2.63707E+000
  5.62500E-005	  9.35841E-001	  9.36799E-001	 -3.00000E+000	  1.22298E+000
  6.25000E-005	  9.49792E-001	  9.48732E-001	 -3.00000E+000	  1.27139E+000
  6.87500E-005	  9.47331E-001	  9.52868E-001	 -2.92292E+000	  1.47095E+000
  7.50000E-005	  9.42706E-001	  9.47799E-001	  2.13154E+000	  9.66595E-001
  8.12500E-005	  9.78423E-001	  9.56447E-001	  1.48129E+000	  1.01512E+000
  8.75000E-005	  9.45756E-001	  9.54914E-001	  1.33082E+000	  9.98202E-001
  9.37500E-005	  9.42077E-001	  9.48421E-001	  1.25421E+000	  1.04775E+000
  1.00000E-004	  9.48745E-001	  9.55729E-001	  1.12201E+000	  9.84526E-001
  1.12500E-004	  9.40390E-001	  9.31784E-001	  1.12070E+000	  1.00549E+000
  1.25000E-004	  9.48985E-001	  9.51076E-001	  1.03319E+000	  1.01488E+000
  1.37500E-004	  9.48994E-001	  9.52771E-001	  9.62179E-001	  9.94262E-001
  1.50000E-004	  9.47849E-001	  9.47229E-001	  9.30081E-001	  9.93609E-001
  1.62500E-004	  9.43164E-001	  9.37251E-001	  9.24369E-001	  9.89642E-001
  1.75000E-004	  9.51265E-001	  9.52956E-001	  9.23707E-001	  9.85951E-001
  1.87500E-004	  9.48346E-001	  9.44196E-001	  9.41788E-001	  9.88928E-001
  2.00000E-004	  9.45913E-001	  9.46389E-001	  9.30015E-001	  9.85878E-001
  2.25000E-004	  9.45847E-001	  9.48896E-001	  9.33794E-001	  9.79939E-001
  2.50000E-004	  9.48085E-001	  9.47723E-001	  9.32340E-001	  9.76953E-001
  2.75000E-004	  9.45521E-001	  9.43800E-001	  9.37186E-001	  9.76003E-001
  3.00000E-004	  9.47676E-001	  9.46564E-001	  9.40896E-001	  9.78027E-001
  3.25000E-004	  9.50813E-001	  9.50884E-001	  9.41253E-001	  9.84674E-001
  3.50000E-004	  9.44194E-001	  9.49120E-001	  9.38352E-001	  9.78476E-001
  3.75000E-004	  9.47919E-001	  9.47275E-001	  9.54766E-001	  9.80612E-001
  4.00000E-004	  9.44359E-001	  9.45777E-001	  9.44733E-001	  9.77832E-001
  4.50000E-004	  9.42329E-001	  9.41304E-001	  9.45625E-001	  9.69448E-001
  5.00000E-004	  9.45581E-001	  9.44341E-001	  9.41378E-001	  9.75853E-001
  5.50000E-004	  9.42717E-001	  9.41652E-001	  9.43757E-001	  9.73488E-001
  6.00000E-004	  9.45551E-001	  9.43898E-001	  9.42376E-001	  9.73953E-001
  6.50000E-004	  9.43362E-001	  9.40543E-001	  9.48595E-001	  9.70069E-001
  7.00000E-004	  9.42214E-001	  9.40928E-001	  9.43784E-001	  9.73441E-001
  7.50000E-004	  9.43178E-001	  9.42951E-001	  9.43941E-001	  9.70103E-001
  8.00000E-004	  9.42196E-001	  9.43092E-001	  9.47910E-001	  9.71425E-001
  9.00000E-004	  9.43050E-001	  9.43157E-001	  9.42271E-001	  9.70833E-001
  1.00000E-003	  9.43255E-001	  9.41815E-001	  9.42964E-001	  9.69684E-001
  1.10000E-003	  9.41795E-001	  9.40632E-001	  9.43159E-001	  9.67211E-001
  1.20000E-003	  9.41868E-001	  9.42189E-001	  9.43203E-001	  9.67167E-001
  1.30000E-003	  9.40579E-001	  9.38212E-001	  9.45506E-001	  9.66135E-001
  1.40000E-003	  9.40776E-001	  9.38755E-001	  9.42890E-001	  9.64014E-001
  1.50000E-003	  9.37925E-001	  9.37364E-001	  9.43014E-001	  9.62836E-001
  1.60000E-003	  9.38837E-001	  9.37944E-001	  9.41520E-001	  9.65388E-001
  1.80000E-003	  9.38809E-001	  9.40205E-001	  9.39005E-001	  9.63017E-001
  2.00000E-003	  9.36831E-001	  9.36853E-001	  9.35365E-001	  9.62771E-001
  2.20000E-003	  9.36461E-001	  9.36115E-001	  9.34826E-001	  9.59607E-001
  2.40000E-003	  9.33836E-001	  9.34325E-001	  9.33145E-001	  9.59240E-001
  2.60000E-003	  9.35001E-001	  9.35060E-001	  9.36223E-001	  9.58156E-001
  2.80000E-003	  9.32294E-001	  9.32474E-001	  9.34232E-001	  9.61515E-001
  3.00000E-003	  9.32429E-001	  9.30953E-001	  9.34455E-001	  9.55901E-001
  3.20000E-003	  9.31337E-001	  9.30231E-001	  9.31721E-001	  9.55529E-001
  3.60000E-003	  9.27867E-001	  9.26604E-001	  9.33865E-001	  9.52801E-001
  4.00000E-003	  9.26217E-001	  9.26210E-001	  9.31152E-001	  9.51378E-001
  4.40000E-003	  9.23996E-001	  9.24741E-001	  9.26649E-001	  9.49321E-001
  4.80000E-003	  9.21726E-001	  9.20274E-001	  9.27662E-001	  9.46757E-001
  5.20000E-003	  9.20207E-001	  9.20755E-001	  9.22584E-001	  9.44962E-001
  5.60000E-003	  9.19054E-001	  9.18750E-001	  9.23521E-001	  9.43407E-001
  6.00000E-003	  9.16890E-001	  9.16938E-001	  9.20924E-001	  9.40133E-001
  6.40000E-003	  9.14023E-001	  9.14285E-001	  9.17887E-001	  9.39211E-001
  7.20000E-003	  9.09848E-001	  9.09639E-001	  9.13600E-001	  9.34616E-001
  8.00000E-003	  9.06439E-001	  9.06372E-001	  9.10423E-001	  9.31268E-001
  8.80000E-003	  9.02993E-001	  9.03290E-001	  9.05985E-001	  9.26723E-001
  9.60000E-003	  8.98906E-001	  8.98870E-001	  9.02287E-001	  9.22225E-001
  1.04000E-002	  8.94317E-001	  8.93770E-001	  8.97637E-001	  9.18669E-001
  1.12000E-002	  8.90319E-001	  8.91395E-001	  8.95672E-001	  9.14391E-001
  1.20000E-002	  8.86924E-001	  8.86975E-001	  8.91140E-001	  9.10461E-001
  1.28000E-002	  8.83463E-001	  8.83079E-001	  8.87543E-001	  9.06832E-001
  1.44000E-002	  8.76018E-001	  8.76221E-001	  8.79202E-001	  8.98580E-001
  1.60000E-002	  8.67914E-001	  8.67996E-001	  8.72128E-001	  8.92177E-001
  1.76000E-002	  8.60675E-001	  8.60998E-001	  8.65203E-001	  8.83487E-001
  1.92000E-002	  8.53573E-001	  8.54089E-001	  8.57748E-001	  8.75687E-001
  2.08000E-002	  8.46462E-001	  8.46971E-001	  8.49921E-001	  8.68415E-001
  2.24000E-002	  8.39168E-001	  8.39699E-001	  8.42801E-001	  8.61272E-001
  2.40000E-002	  8.31873E-001	  8.32559E-001	  8.35701E-001	  8.54686E-001
  2.56000E-002	  8.24985E-001	  8.25722E-001	  8.28630E-001	  8.47426E-001
  2.88000E-002	  8.11620E-001	  8.12230E-001	  8.14509E-001	  8.33241E-001
  3.20000E-002	  7.97685E-001	  7.98174E-001	  8.01576E-001	  8.19510E-001
  3.52000E-002	  7.84473E-001	  7.84792E-001	  7.88190E-001	  8.05527E-001
  3.84000E-002	  7.71523E-001	  7.71928E-001	  7.74936E-001	  7.92135E-001
  4.16000E-002	  7.58704E-001	  7.58954E-001	  7.62174E-001	  7.79310E-001
  4.48000E-002	  7.47065E-001	  7.47314E-001	  7.49237E-001	  7.66679E-001
  4.80000E-002	  7.34212E-001	  7.35262E-001	  7.37552E-001	  7.53458E-001
  5.12000E-002	  7.22253E-001	  7.23027E-001	  7.25059E-001	  7.41360E-001
  5.76000E-002	  6.98520E-001	  6.99052E-001	  7.01230E-001	  7.17637E-001
  6.40000E-002	  6.76138E-001	  6.76682E-001	  6.78559E-001	  6.94355E-001
  7.04000E-002	  6.54017E-001	  6.54722E-001	  6.56911E-001	  6.71885E-001
  7.68000E-002	  6.33175E-001	  6.34003E-001	  6.35844E-001	  6.50332E-001
  8.32000E-002	  6.12655E-001	  6.13414E-001	  6.15507E-001	  6.29373E-001
  8.96000E-002	  5.93044E-001	  5.93694E-001	  5.95412E-001	  6.09106E-001
  9.60000E-002	  5.74086E-001	  5.75352E-001	  5.76592E-001	  5.90078E-001
  1.02400E-001	  5.55642E-001	  5.56464E-001	  5.58411E-001	  5.71301E-001
  1.15200E-001	  5.21267E-001	  5.21926E-001	  5.23040E-001	  5.35456E-001
  1.28000E-001	  4.88616E-001	  4.89193E-001	  4.90528E-001	  5.02107E-001
  1.40800E-001	  4.58122E-001	  4.58875E-001	  4.59774E-001	  4.70823E-001
  1.53600E-001	  4.29650E-001	  4.30408E-001	  4.31146E-001	  4.41401E-001
  1.66400E-001	  4.02854E-001	  4.03694E-001	  4.03818E-001	  4.14189E-001
  1.79200E-001	  3.77637E-001	  3.78375E-001	  3.79066E-001	  3.87925E-001
  1.92000E-001	  3.54254E-001	  3.55140E-001	  3.55416E-001	  3.63929E-001
  2.04800E-001	  3.32548E-001	  3.33427E-001	  3.33979E-001	  3.41777E-001
  2.30400E-001	  2.92981E-001	  2.93701E-001	  2.94079E-001	  3.00978E-001
  2.56000E-001	  2.58135E-001	  2.58794E-001	  2.59399E-001	  2.64989E-001
  2.81600E-001	  2.27616E-001	  2.27948E-001	  2.28440E-001	  2.33681E-001
  3.07200E-001	  2.00767E-001	  2.01086E-001	  2.01784E-001	  2.05892E-001
  3.32800E-001	  1.77140E-001	  1.77364E-001	  1.78482E-001	  1.81410E-001
  3.58400E-001	  1.56431E-001	  1.56696E-001	  1.57586E-001	  1.60370E-001
  3.84000E-001	  1.38249E-001	  1.38597E-001	  1.38943E-001	  1.41793E-001
  4.09600E-001	  1.22484E-001	  1.22694E-001	  1.23118E-001	  1.25590E-001
  4.60800E-001	  9.53784E-002	  9.54771E-002	  9.58120E-002	  9.79210E-002
  5.12000E-001	  7.44101E-002	  7.45069E-002	  7.47771E-002	  7.65067E-002
  5.63200E-001	  5.82882E-002	  5.83398E-002	  5.83776E-002	  5.99335E-002
  6.14400E-001	  4.54898E-002	  4.55571E-002	  4.56301E-002	  4.69099E-002
  6.65600E-001	  3.56946E-002	  3.56166E-002	  3.55004E-002	  3.68655E-002
  7.16800E-001	  2.79360E-002	  2.78216E-002	  2.75453E-002	  2.90083E-002
  7.68000E-001	  2.19597E-002	  2.17644E-002	  2.15304E-002	  2.27744E-002
  8.19200E-001	  1.74870E-002	  1.72142E-002	  1.70869E-002	  1.83677E-002
  9.21600E-001	  1.06433E-002	  1.02816E-002	  1.05453E-002	  1.11247E-002
  1.02400E+000	  6.77903E-003	  6.37054E-003	  6.57444E-003	  7.30481E-003
  1.12640E+000	  4.06190E-003	  3.67368E-003	  3.73031E-003	  4.55194E-003
  1.22880E+000	  2.18285E-003	  1.85458E-003	  1.78205E-003	  2.55029E-003
  1.33120E+000	  1.23740E-003	  1.04000E-003	  8.63065E-004	  1.58790E-003
  1.43360E+000	  3.33687E-004	  2.80285E-004	  2.91290E-004	  4.67139E-004
  1.53600E+000	  3.14809E-004	  2.14194E-004	  1.91453E-004	  4.67118E-004
  1.63840E+000	  2.81641E-004	  2.55577E-004	  1.14243E-004	  3.63946E-004
  1.84320E+000	  6.80885E-004	  4.84090E-004	  2.86800E-004	  8.85467E-004
  2.04800E+000	  9.91547E-004	  1.23942E-003	  6.80389E-004	  1.34435E-003
  2.25280E+000	  1.29522E-003	  1.53228E-003	  1.10202E-003	  1.47831E-003
  2.45760E+000	  8.27586E-004	  9.64504E-004	  5.27614E-004	  1.07693E-003
  2.66240E+000	  1.11173E-003	  1.31602E-003	  1.12510E-003	  1.24785E-003
  2.86720E+000	  1.67027E-004	  1.61606E-004	  4.21807E-004	 -1.11114E-004
  3.07200E+000	 -1.41647E-003	 -1.69483E-003	 -1.07689E-003	 -1.48124E-003
  3.27680E+000	 -1.71032E-003	 -1.97072E-003	 -1.58798E-003	 -1.64736E-003
  3.68640E+000	 -3.62633E-004	 -5.45525E-004	 -5.13740E-004	 -2.72863E-004
  4.09600E+000	 -4.32885E-004	 -5.31794E-004	 -6.85997E-004	 -3.54700E-004
  4.50560E+000	 -4.59578E-005	  1.29403E-004	 -1.97300E-004	  1.66913E-004
  4.91520E+000	  6.35914E-004	  6.27831E-004	  4.10358E-004	  9.47579E-004
  5.32480E+000	  3.94529E-005	 -2.38795E-005	  4.54449E-004	 -2.82326E-004
  5.73440E+000	  7.14854E-005	  3.29492E-005	  1.53497E-004	 -6.87532E-005
  6.14400E+000	 -2.06737E-004	 -7.01423E-005	 -4.47060E-004	  2.24371E-005
  6.55360E+000	 -7.85577E-004	 -6.91572E-004	 -9.71656E-004	 -5.99940E-004
  7.37280E+000	 -5.16491E-004	 -2.19815E-004	 -5.42273E-004	 -4.86300E-004
  8.19200E+000	 -2.61853E-004	  4.19426E-005	 -5.88427E-004	  1.92220E-004
  9.01120E+000	  1.72378E-003	  1.96427E-003	  1.32199E-003	  2.08204E-003
  9.83040E+000	  2.02328E-003	  1.84976E-003	  1.70030E-003	  2.35154E-003
  1.06496E+001	  1.26354E-004	 -1.03650E-004	  2.19873E-004	  1.54924E-004
  1.14688E+001	  4.77214E-004	  5.11349E-004	  2.82133E-004	  7.54887E-004
  1.22880E+001	 -3.38523E-004	 -1.76163E-004	 -5.46044E-004	 -1.68868E-004
  1.31072E+001	 -1.03358E-004	  3.35934E-005	 -3.53792E-005	 -1.69691E-004
  1.47456E+001	  8.14605E-004	  6.92615E-004	  7.89435E-004	  8.29978E-004
  1.63840E+001	 -1.07412E-004	 -1.98972E-004	 -1.64443E-004	 -2.03426E-005
  1.80224E+001	 -1.36962E-003	 -1.34268E-003	 -1.52134E-003	 -1.25168E-003
  1.96608E+001	  6.50274E-004	  8.55525E-004	  4.62743E-004	  7.22994E-004
  2.12992E+001	  2.39439E-004	  3.29300E-004	  2.30603E-004	  2.29697E-004
  2.29376E+001	 -6.43574E-004	 -5.69969E-004	 -7.18474E-004	 -5.63418E-004
  2.45760E+001	  7.90396E-005	  2.94957E-004	  1.69052E-004	 -2.51283E-005
  2.62144E+001	 -2.00268E-004	 -2.16670E-004	 -1.22926E-004	 -2.56632E-004
  2.94912E+001	 -1.35602E-004	 -9.15109E-005	 -1.56530E-004	 -8.55252E-005
  3.27680E+001	 -3.54170E-004	 -4.66743E-004	 -2.81921E-004	 -4.21085E-004
  3.60448E+001	 -8.89646E-004	 -9.30674E-004	 -9.44273E-004	 -8.67542E-004
  3.93216E+001	  6.29176E-005	 -5.17179E-005	  3.29635E-005	  9.44012E-005
  4.25984E+001	  3.93040E-004	  4.41382E-004	  4.39764E-004	  3.94050E-004
  4.58752E+001	  3.83794E-004	  3.36342E-004	  2.32878E-004	  5.34256E-004
  4.91520E+001	  2.41338E-004	  2.36954E-004	  1.70265E-004	  3.16923E-004
  5.24288E+001	  2.40380E-004	  2.68468E-004	  2.08117E-004	  3.04961E-004
  5.89824E+001	  4.57656E-004	  4.82873E-004	  3.75801E-004	  5.44139E-004
  6.55360E+001	  2.36719E-004	  3.30220E-004	  2.64554E-004	  2.67171E-004
  7.20896E+001	  8.23703E-005	  2.18353E-004	  1.29810E-004	 -3.09664E-006
  7.86432E+001	  1.50327E-005	  1.12826E-005	  1.37717E-005	  2.18006E-005
  8.51968E+001	 -5.04643E-004	 -5.37277E-004	 -5.18931E-004	 -4.99061E-004
  9.17504E+001	 -1.67271E-005	 -3.55018E-005	 -7.42507E-005	  5.08431E-005
  9.83040E+001	 -2.95415E-004	 -3.02451E-004	 -3.16880E-004	 -3.20997E-004
  1.04858E+002	 -3.54848E-004	 -3.67972E-004	 -3.66623E-004	 -3.50249E-004
  1.17965E+002	 -2.74806E-006	  4.54955E-005	 -6.05362E-005	  5.55454E-005
  1.31072E+002	 -1.75090E-004	 -1.70445E-004	 -2.27169E-004	 -1.06768E-004
  1.44179E+002	  3.48991E-004	  3.12864E-004	  2.53658E-004	  4.39320E-004
  1.57286E+002	 -1.77714E-004	 -1.55000E-004	 -2.64716E-004	 -8.63238E-005
  1.70394E+002	  2.71680E-004	  2.65704E-004	  2.84294E-004	  2.87895E-004
  1.83501E+002	  4.28051E-004	  3.10108E-004	  4.39589E-004	  4.30267E-004
  1.96608E+002	  4.13475E-005	  3.66757E-005	  6.48805E-005	  1.99946E-006
  2.09715E+002	  1.63511E-004	  1.43140E-004	  2.07601E-004	  1.19962E-004
  2.35930E+002	  9.38061E-005	  6.39274E-005	  1.08940E-004	  6.90335E-005
  2.62144E+002	 -3.09350E-004	 -3.22091E-004	 -2.79676E-004	 -3.51993E-004
  2.88358E+002	  2.47308E-005	  4.65633E-005	 -2.16509E-005	  7.56904E-005
  3.14573E+002	 -2.71560E-005	 -1.76346E-005	  4.22622E-005	 -7.86370E-005
  3.40787E+002	 -9.61486E-005	 -9.30318E-005	 -8.92485E-005	 -1.06301E-004
  3.67002E+002	  4.39892E-005	 -2.03778E-005	  1.01839E-005	  5.65849E-005
  3.93216E+002	  6.37174E-005	  1.02018E-004	  1.19931E-004	 -6.05630E-006
  4.19430E+002	  4.82150E-005	  7.96919E-005	  7.45164E-005	  2.63953E-006
  4.71859E+002	 -3.01521E-004	 -3.05420E-004	 -2.63576E-004	 -3.36626E-004
  5.24288E+002	  3.07889E-004	  3.42297E-004	  3.15170E-004	  3.05466E-004
  5.76717E+002	 -1.93313E-004	 -1.89153E-004	 -1.89157E-004	 -1.97465E-004
  6.29146E+002	  1.20691E-004	  1.24898E-004	  1.78732E-004	  5.99394E-005
  6.81574E+002	  2.34045E-004	  2.21216E-004	  1.89605E-004	  2.78980E-004
  7.34003E+002	 -9.72196E-005	 -1.18996E-004	 -9.33378E-005	 -8.89688E-005
  7.86432E+002	  7.18292E-005	  4.98440E-005	  1.00038E-004	  5.28147E-005
  8.38861E+002	  1.09972E-005	  3.46834E-006	  1.94045E-005	  8.76549E-006
  9.43718E+002	  1.07357E-004	  8.89671E-005	  1.25021E-004	  8.73064E-005
  1.04858E+003	  1.68406E-005	  3.57641E-005	 -5.06443E-006	  2.98499E-005
  1.15343E+003	  3.18960E-005	  4.98209E-005	  4.49286E-005	  2.09584E-005
  1.25829E+003	  1.04662E-005	  1.61712E-005	  1.11882E-005	 -3.42437E-006
  1.36315E+003	  1.41947E-004	  1.68679E-004	  1.57860E-004	  1.17534E-004
  1.46801E+003	 -2.03838E-005	 -1.34289E-005	 -2.51830E-005	 -2.02788E-005
  1.57286E+003	 -1.11253E-005	 -1.30825E-005	 -2.23029E-005	  2.34911E-006
  1.67772E+003	  1.86763E-006	 -1.32556E-005	 -4.71272E-006	  5.49488E-006
  1.88744E+003	 -5.56333E-005	 -4.33626E-005	 -3.12423E-005	 -7.69285E-005
  2.09715E+003	 -1.64680E-005	 -2.67734E-005	 -4.28532E-006	 -2.68540E-005
  2.30687E+003	 -1.07556E-004	 -1.28919E-004	 -9.76577E-005	 -1.14358E-004
  2.51658E+003	  8.87526E-006	 -2.39654E-006	  5.58260E-006	  6.75499E-006
  2.72630E+003	  8.24539E-005	  8.74971E-005	  8.76262E-005	  8.26278E-005
  2.93601E+003	 -1.41747E-007	 -1.26125E-005	  2.36953E-005	 -2.70757E-005
  3.14573E+003	 -3.72298E-005	 -4.38189E-005	 -4.19022E-005	 -4.00157E-005
  3.35544E+003	  2.32066E-005	  3.88860E-005	  1.51000E-005	  3.31005E-005
  3.77487E+003	 -1.64733E-005	 -2.54854E-005	 -1.11060E-005	 -2.05760E-005
  4.19430E+003	 -4.93743E-005	 -4.56468E-005	 -5.65936E-005	 -4.05666E-005
  4.61373E+003	  8.41576E-006	  1.49047E-005	  6.31164E-006	  7.73859E-006
  5.03317E+003	 -5.95450E-005	 -6.23824E-005	 -5.27898E-005	 -6.94510E-005
  5.45260E+003	  7.09958E-005	  7.81542E-005	  7.00027E-005	  7.45865E-005
  5.87203E+003	  1.94115E-006	  2.14795E-005	  4.81959E-006	 -1.32569E-006
  6.29146E+003	 -2.16193E-005	 -2.86295E-005	 -1.88975E-005	 -2.33238E-005
  6.71089E+003	  2.58876E-005	  2.86325E-005	  2.85453E-005	  2.08824E-005
  7.54975E+003	 -3.70067E-005	 -2.09332E-005	 -4.33308E-005	 -2.99937E-005
  8.38861E+003	 -9.39560E-005	 -1.01813E-004	 -9.20303E-005	 -9.41543E-005
  9.22747E+003	 -3.93301E-005	 -3.43064E-005	 -3.91662E-005	 -4.15425E-005
  1.00663E+004	 -4.98298E-005	 -3.94222E-005	 -6.33841E-005	 -3.47171E-005
  1.09052E+004	 -6.00434E-005	 -6.55759E-005	 -6.36549E-005	 -5.53004E-005
  1.17441E+004	 -8.29339E-005	 -8.79119E-005	 -9.65904E-005	 -7.82500E-005

"Count Rate"
       0.19531	     438.52161	     530.80884	     438.52161	     530.80884
       0.39063	     437.53378	     520.30103	     437.53378	     520.30103
       0.58594	     425.48541	     514.63513	     425.48541	     514.63513
       0.78125	     404.76163	     483.55713	     404.76163	     483.55713
       0.97656	     411.04684	     496.20944	     411.04684	     496.20944
       1.17188	     410.37634	     487.77457	     410.37634	     487.77457
       1.36719	     431.78601	     516.48798	     431.78601	     516.48798
       1.56250	     422.26605	     503.18561	     422.26605	     503.18561
       1.75781	     432.23129	     517.94153	     432.23129	     517.94153
       1.95313	     416.12927	     503.10373	     416.12927	     503.10373
       2.14844	     434.31952	     524.25745	     434.31952	     524.25745
       2.34375	     419.23093	     500.35522	     419.23093	     500.35522
       2.53906	     417.93088	     501.90094	     417.93088	     501.90094
       2.73438	     440.60474	     529.44739	     440.60474	     529.44739
       2.92969	     411.50748	     496.17874	     411.50748	     496.17874
