ALV-7004 or ALV-7004/FAST Data
Date :	"3/27/2010"
Time :	"10:38:48 AM"
Samplename : 	"BSA 1 g/l in YCl3 8.3mM"
SampMemo(0) : 	""
SampMemo(1) : 	""
SampMemo(2) : 	""
SampMemo(3) : 	""
SampMemo(4) : 	""
SampMemo(5) : 	""
SampMemo(6) : 	""
SampMemo(7) : 	""
SampMemo(8) : 	""
SampMemo(9) : 	""
Temperature [K] :	     295.65771
Viscosity [cp]  :	       0.94319
Refractive Index:	       1.33200
Wavelength [nm] :	     632.80000
Angle [°]       :	      40.00000
Duration [s]    :	        70
Runs            :	         1
Mode            :	"C-CH0/1+1/0"
MeanCR0 [kHz]   :	      84.00291
MeanCR1 [kHz]   :	     102.77861
MeanCR2 [kHz]   :	       0.00000
MeanCR3 [kHz]   :	       0.00000

"Correlation"
  3.12500E-006	  9.12208E-001	  8.44665E-001	 -3.00000E+000	 -3.00000E+000
  6.25000E-006	  8.67683E-001	  8.54727E-001	 -3.00000E+000	 -3.00000E+000
  9.37500E-006	  9.44167E-001	  8.92228E-001	 -3.00000E+000	 -3.00000E+000
  1.25000E-005	  8.84664E-001	  9.21368E-001	 -3.00000E+000	 -3.00000E+000
  1.56250E-005	  9.23831E-001	  8.52936E-001	 -3.00000E+000	 -3.00000E+000
  1.87500E-005	  9.11212E-001	  9.04879E-001	 -3.00000E+000	 -3.00000E+000
  2.18750E-005	  8.72511E-001	  8.43679E-001	 -3.00000E+000	 -3.00000E+000
  2.50000E-005	  9.82963E-001	  9.75265E-001	 -3.00000E+000	 -3.00000E+000
  2.81250E-005	  9.37992E-001	  9.42591E-001	 -3.00000E+000	 -3.00000E+000
  3.12500E-005	  9.31406E-001	  9.18751E-001	 -3.00000E+000	 -3.00000E+000
  3.43750E-005	  8.92297E-001	  8.71590E-001	 -3.00000E+000	 -3.00000E+000
  3.75000E-005	  8.75747E-001	  8.56790E-001	 -3.00000E+000	 -3.00000E+000
  4.06250E-005	  9.21708E-001	  9.43189E-001	 -3.00000E+000	  1.75808E+000
  4.37500E-005	  9.43802E-001	  9.27131E-001	 -3.00000E+000	  2.23637E+000
  4.68750E-005	  9.80023E-001	  9.10359E-001	 -3.00000E+000	 -7.06373E-001
  5.00000E-005	  9.60386E-001	  9.42530E-001	 -3.00000E+000	  3.24799E+000
  5.62500E-005	  9.28828E-001	  9.10540E-001	 -3.00000E+000	  1.66938E+000
  6.25000E-005	  9.36861E-001	  9.20303E-001	 -3.00000E+000	  1.63651E+000
  6.87500E-005	  9.30942E-001	  9.32557E-001	 -2.90641E+000	  1.82079E+000
  7.50000E-005	  8.78963E-001	  9.00444E-001	  2.66425E+000	  1.22036E+000
  8.12500E-005	  9.77364E-001	  9.35068E-001	  1.31898E+000	  1.31466E+000
  8.75000E-005	  9.11017E-001	  9.23964E-001	  1.39090E+000	  1.25717E+000
  9.37500E-005	  9.27990E-001	  9.25297E-001	  1.23468E+000	  1.26491E+000
  1.00000E-004	  9.46378E-001	  9.60300E-001	  1.09743E+000	  1.14500E+000
  1.12500E-004	  9.38440E-001	  9.34037E-001	  1.10908E+000	  1.12176E+000
  1.25000E-004	  9.60916E-001	  9.81543E-001	  1.07423E+000	  1.13544E+000
  1.37500E-004	  9.64224E-001	  9.64099E-001	  9.68779E-001	  1.08939E+000
  1.50000E-004	  9.27273E-001	  9.12664E-001	  1.00281E+000	  1.07514E+000
  1.62500E-004	  8.99582E-001	  9.00053E-001	  9.21596E-001	  1.06683E+000
  1.75000E-004	  9.29113E-001	  9.12446E-001	  9.26835E-001	  1.04366E+000
  1.87500E-004	  9.25243E-001	  9.16238E-001	  9.41959E-001	  1.00612E+000
  2.00000E-004	  9.18314E-001	  9.18911E-001	  9.58050E-001	  1.03293E+000
  2.25000E-004	  9.19865E-001	  9.27033E-001	  9.35822E-001	  1.03693E+000
  2.50000E-004	  9.22596E-001	  9.23474E-001	  9.18242E-001	  1.00422E+000
  2.75000E-004	  9.20825E-001	  8.95917E-001	  9.46981E-001	  1.02598E+000
  3.00000E-004	  9.31138E-001	  9.41637E-001	  9.02424E-001	  9.81003E-001
  3.25000E-004	  9.29423E-001	  9.33880E-001	  9.29678E-001	  1.00303E+000
  3.50000E-004	  9.24432E-001	  9.23249E-001	  9.25862E-001	  9.77317E-001
  3.75000E-004	  9.06460E-001	  9.09983E-001	  9.27648E-001	  9.78320E-001
  4.00000E-004	  9.25140E-001	  9.32067E-001	  9.30232E-001	  9.81489E-001
  4.50000E-004	  9.31398E-001	  9.25472E-001	  9.19587E-001	  9.92865E-001
  5.00000E-004	  9.26717E-001	  9.25505E-001	  9.22937E-001	  9.67946E-001
  5.50000E-004	  9.32357E-001	  9.43576E-001	  9.17249E-001	  9.71056E-001
  6.00000E-004	  9.20286E-001	  9.25004E-001	  9.36043E-001	  9.61361E-001
  6.50000E-004	  9.11194E-001	  9.12895E-001	  9.24684E-001	  9.53211E-001
  7.00000E-004	  9.18059E-001	  9.13842E-001	  9.07728E-001	  9.53815E-001
  7.50000E-004	  9.32155E-001	  9.19497E-001	  9.25392E-001	  9.60347E-001
  8.00000E-004	  9.27611E-001	  9.20123E-001	  9.43475E-001	  9.63398E-001
  9.00000E-004	  9.28592E-001	  9.31998E-001	  9.31637E-001	  9.63876E-001
  1.00000E-003	  9.28684E-001	  9.31215E-001	  9.31003E-001	  9.60273E-001
  1.10000E-003	  9.23623E-001	  9.12332E-001	  9.20608E-001	  9.64891E-001
  1.20000E-003	  9.19601E-001	  9.30652E-001	  9.12351E-001	  9.53925E-001
  1.30000E-003	  9.14750E-001	  9.10234E-001	  9.06488E-001	  9.42840E-001
  1.40000E-003	  9.18635E-001	  9.16086E-001	  9.17464E-001	  9.49164E-001
  1.50000E-003	  9.18292E-001	  9.05186E-001	  9.10954E-001	  9.53880E-001
  1.60000E-003	  9.20581E-001	  9.19851E-001	  9.17266E-001	  9.48113E-001
  1.80000E-003	  9.11722E-001	  9.14451E-001	  8.99430E-001	  9.44485E-001
  2.00000E-003	  9.14052E-001	  9.20405E-001	  9.07119E-001	  9.41592E-001
  2.20000E-003	  9.10833E-001	  9.09845E-001	  9.06850E-001	  9.34440E-001
  2.40000E-003	  9.17448E-001	  9.23343E-001	  9.06915E-001	  9.37618E-001
  2.60000E-003	  9.08816E-001	  9.05140E-001	  9.11605E-001	  9.35741E-001
  2.80000E-003	  9.04098E-001	  9.04773E-001	  9.19376E-001	  9.32176E-001
  3.00000E-003	  9.15773E-001	  9.17538E-001	  8.95541E-001	  9.36436E-001
  3.20000E-003	  9.07481E-001	  9.09403E-001	  9.10385E-001	  9.32468E-001
  3.60000E-003	  9.00363E-001	  8.99810E-001	  8.99439E-001	  9.21889E-001
  4.00000E-003	  8.93109E-001	  8.89795E-001	  9.06569E-001	  9.19299E-001
  4.40000E-003	  8.88447E-001	  8.84746E-001	  8.99758E-001	  9.14585E-001
  4.80000E-003	  8.88297E-001	  8.88961E-001	  8.83178E-001	  9.10579E-001
  5.20000E-003	  8.83138E-001	  8.84267E-001	  8.91143E-001	  9.03594E-001
  5.60000E-003	  8.85144E-001	  8.86803E-001	  8.87384E-001	  8.93417E-001
  6.00000E-003	  8.79951E-001	  8.79501E-001	  8.77500E-001	  8.94762E-001
  6.40000E-003	  8.72155E-001	  8.76385E-001	  8.81547E-001	  8.89022E-001
  7.20000E-003	  8.65837E-001	  8.63565E-001	  8.76229E-001	  8.82766E-001
  8.00000E-003	  8.61541E-001	  8.62835E-001	  8.67725E-001	  8.77478E-001
  8.80000E-003	  8.54566E-001	  8.55353E-001	  8.64354E-001	  8.70201E-001
  9.60000E-003	  8.49135E-001	  8.49154E-001	  8.55557E-001	  8.67966E-001
  1.04000E-002	  8.38876E-001	  8.40010E-001	  8.51956E-001	  8.54101E-001
  1.12000E-002	  8.32777E-001	  8.30052E-001	  8.46506E-001	  8.49696E-001
  1.20000E-002	  8.26056E-001	  8.23610E-001	  8.39920E-001	  8.50424E-001
  1.28000E-002	  8.17866E-001	  8.16348E-001	  8.31758E-001	  8.39423E-001
  1.44000E-002	  8.07518E-001	  8.05309E-001	  8.17769E-001	  8.24641E-001
  1.60000E-002	  7.93852E-001	  7.92882E-001	  8.10153E-001	  8.11587E-001
  1.76000E-002	  7.83054E-001	  7.81877E-001	  7.97855E-001	  7.97902E-001
  1.92000E-002	  7.68675E-001	  7.70114E-001	  7.81720E-001	  7.85119E-001
  2.08000E-002	  7.56897E-001	  7.60176E-001	  7.68702E-001	  7.72652E-001
  2.24000E-002	  7.43405E-001	  7.45402E-001	  7.61473E-001	  7.61864E-001
  2.40000E-002	  7.35756E-001	  7.34837E-001	  7.45013E-001	  7.50735E-001
  2.56000E-002	  7.22526E-001	  7.21572E-001	  7.32061E-001	  7.37744E-001
  2.88000E-002	  7.00737E-001	  7.00555E-001	  7.11877E-001	  7.15596E-001
  3.20000E-002	  6.80593E-001	  6.80797E-001	  6.88708E-001	  6.96707E-001
  3.52000E-002	  6.59564E-001	  6.60771E-001	  6.71989E-001	  6.72457E-001
  3.84000E-002	  6.39446E-001	  6.36942E-001	  6.49807E-001	  6.55229E-001
  4.16000E-002	  6.19320E-001	  6.21327E-001	  6.29093E-001	  6.32713E-001
  4.48000E-002	  5.99719E-001	  5.99419E-001	  6.10572E-001	  6.12643E-001
  4.80000E-002	  5.82435E-001	  5.81476E-001	  5.93526E-001	  5.96829E-001
  5.12000E-002	  5.65959E-001	  5.65166E-001	  5.74514E-001	  5.78096E-001
  5.76000E-002	  5.31839E-001	  5.32156E-001	  5.40157E-001	  5.43579E-001
  6.40000E-002	  4.99911E-001	  4.99097E-001	  5.08393E-001	  5.11581E-001
  7.04000E-002	  4.70048E-001	  4.70327E-001	  4.77111E-001	  4.81786E-001
  7.68000E-002	  4.42859E-001	  4.43095E-001	  4.50465E-001	  4.52899E-001
  8.32000E-002	  4.16936E-001	  4.15763E-001	  4.25094E-001	  4.24907E-001
  8.96000E-002	  3.92261E-001	  3.91792E-001	  3.99869E-001	  3.99822E-001
  9.60000E-002	  3.69613E-001	  3.69886E-001	  3.76322E-001	  3.76648E-001
  1.02400E-001	  3.48009E-001	  3.47758E-001	  3.54044E-001	  3.55613E-001
  1.15200E-001	  3.08087E-001	  3.08453E-001	  3.13602E-001	  3.14496E-001
  1.28000E-001	  2.73305E-001	  2.72540E-001	  2.77738E-001	  2.79174E-001
  1.40800E-001	  2.41064E-001	  2.41228E-001	  2.45029E-001	  2.46926E-001
  1.53600E-001	  2.14993E-001	  2.14520E-001	  2.15838E-001	  2.20165E-001
  1.66400E-001	  1.89892E-001	  1.89475E-001	  1.91769E-001	  1.94521E-001
  1.79200E-001	  1.68684E-001	  1.68578E-001	  1.70619E-001	  1.73882E-001
  1.92000E-001	  1.50019E-001	  1.50333E-001	  1.52169E-001	  1.53906E-001
  2.04800E-001	  1.33500E-001	  1.33565E-001	  1.36013E-001	  1.36497E-001
  2.30400E-001	  1.05405E-001	  1.05836E-001	  1.07439E-001	  1.07408E-001
  2.56000E-001	  8.39180E-002	  8.34226E-002	  8.40231E-002	  8.46653E-002
  2.81600E-001	  6.56579E-002	  6.49606E-002	  6.80655E-002	  6.65984E-002
  3.07200E-001	  5.15381E-002	  5.13062E-002	  5.35180E-002	  5.23076E-002
  3.32800E-001	  4.01873E-002	  3.90991E-002	  4.18621E-002	  4.06304E-002
  3.58400E-001	  3.17263E-002	  3.17333E-002	  3.26366E-002	  3.19556E-002
  3.84000E-001	  2.61178E-002	  2.59213E-002	  2.68804E-002	  2.51759E-002
  4.09600E-001	  2.11780E-002	  2.12414E-002	  2.13289E-002	  2.16464E-002
  4.60800E-001	  1.29910E-002	  1.32806E-002	  1.27020E-002	  1.38809E-002
  5.12000E-001	  8.07610E-003	  8.18889E-003	  7.47217E-003	  8.64827E-003
  5.63200E-001	  4.99575E-003	  4.29190E-003	  4.35364E-003	  5.14837E-003
  6.14400E-001	  3.04852E-003	  3.40549E-003	  2.47070E-003	  3.68378E-003
  6.65600E-001	  2.02337E-003	  2.78570E-003	  2.27623E-003	  2.44154E-003
  7.16800E-001	  1.47016E-003	  1.97203E-003	  2.41873E-003	  1.31321E-003
  7.68000E-001	  1.29170E-003	  1.84001E-003	  2.08349E-003	  1.51018E-003
  8.19200E-001	  4.11925E-004	  7.00215E-004	  9.95138E-004	  1.24943E-003
  9.21600E-001	  6.78265E-004	  1.28943E-003	  3.29615E-004	  4.19208E-004
  1.02400E+000	  7.62469E-004	  1.02742E-003	  1.02242E-003	  8.41572E-004
  1.12640E+000	  1.27688E-003	  1.64324E-003	  6.32431E-004	  1.51905E-003
  1.22880E+000	  7.28022E-004	  1.07390E-003	  4.65373E-004	  1.23914E-003
  1.33120E+000	  1.27316E-003	  1.78444E-003	  6.66199E-004	  1.81100E-003
  1.43360E+000	  2.83429E-004	  8.00243E-004	  6.23402E-005	  4.69878E-004
  1.53600E+000	  3.19950E-004	  7.62420E-004	  2.05956E-004	  3.63698E-004
  1.63840E+000	  4.72140E-004	  9.53004E-004	  5.95015E-004	  1.39456E-004
  1.84320E+000	 -5.13754E-004	 -1.04765E-003	 -1.07950E-004	 -1.09108E-003
  2.04800E+000	  4.47314E-004	  2.33904E-004	  6.66081E-005	  3.00453E-004
  2.25280E+000	 -9.83222E-005	 -7.28081E-004	 -4.27990E-004	 -5.40280E-004
  2.45760E+000	 -1.11680E-004	 -5.81328E-005	 -8.62164E-005	  1.53541E-004
  2.66240E+000	 -2.21108E-004	  8.49996E-005	 -5.62799E-004	 -7.32323E-004
  2.86720E+000	  6.06018E-004	  3.99536E-004	  7.48851E-004	  8.35962E-004
  3.07200E+000	  8.84232E-004	  1.25160E-003	  3.89009E-004	  1.57566E-003
  3.27680E+000	  6.29843E-004	  1.27680E-003	  1.34651E-004	  1.04183E-003
  3.68640E+000	  1.21145E-004	  3.23368E-004	  4.78275E-004	 -3.02700E-006
  4.09600E+000	 -1.03687E-004	  3.56530E-004	 -2.95945E-004	  1.13391E-004
  4.50560E+000	 -1.26084E-004	 -3.63615E-004	  3.55268E-004	 -2.79378E-004
  4.91520E+000	 -1.13219E-003	 -1.19912E-003	 -1.58433E-003	 -9.78244E-004
  5.32480E+000	 -5.50935E-004	 -7.42450E-004	 -5.11200E-004	 -1.03133E-003
  5.73440E+000	 -7.32903E-005	 -6.63739E-004	 -3.20740E-004	 -1.07741E-004
  6.14400E+000	  5.82969E-005	 -1.30486E-004	  6.18252E-004	  1.85853E-004
  6.55360E+000	 -3.73803E-004	 -4.23828E-004	 -2.22641E-004	 -3.19780E-004
  7.37280E+000	  2.04812E-004	  2.36854E-004	  2.61147E-004	 -5.67817E-005
  8.19200E+000	 -1.72457E-004	 -1.90814E-004	 -3.07739E-004	 -1.12586E-004
  9.01120E+000	 -2.10240E-004	 -4.10912E-004	 -1.98278E-004	 -2.79723E-004
  9.83040E+000	 -6.84030E-004	 -7.19824E-004	 -7.26922E-004	 -7.21930E-004
  1.06496E+001	  1.99912E-004	  7.00972E-004	 -1.18780E-006	  2.97447E-004
  1.14688E+001	 -5.71909E-004	 -4.06600E-004	 -4.85846E-004	 -6.24467E-004
  1.22880E+001	  3.29702E-004	  3.45329E-004	  2.62152E-004	  4.44169E-004
  1.31072E+001	 -4.32605E-004	 -4.05711E-004	 -4.25780E-004	 -3.44493E-004
  1.47456E+001	  2.85810E-004	  3.52117E-004	  3.18741E-004	  2.84575E-004
  1.63840E+001	 -5.39611E-004	 -3.39997E-004	 -9.43879E-004	 -2.43082E-004
  1.80224E+001	  1.30355E-004	  2.45595E-004	  6.12041E-005	  2.97757E-004
  1.96608E+001	  6.35931E-004	  7.70518E-004	  6.28076E-004	  5.86705E-004
  2.12992E+001	  7.14142E-005	 -5.66559E-005	  2.17883E-006	 -5.65463E-005
  2.29376E+001	 -3.99961E-004	 -5.02190E-004	 -2.99804E-004	 -3.71120E-004
  2.45760E+001	 -1.86498E-004	 -1.47246E-004	 -3.87365E-004	 -1.56612E-005
  2.62144E+001	  1.34635E-004	  1.45516E-004	  8.55826E-006	  7.14995E-005
  2.94912E+001	  3.18061E-004	  4.33611E-004	  4.01725E-004	  1.84854E-004
  3.27680E+001	 -1.86851E-004	 -9.48299E-005	 -3.94237E-004	 -1.58006E-004
  3.60448E+001	  2.83700E-005	  7.15756E-006	 -2.58068E-004	  2.17259E-004
  3.93216E+001	  1.69850E-004	  7.85587E-005	  1.42398E-004	  2.66488E-004
  4.25984E+001	 -2.59208E-004	 -2.71707E-004	 -3.68707E-004	 -1.93734E-004
  4.58752E+001	 -3.28661E-004	 -2.05916E-004	 -3.89599E-004	 -2.95725E-004
  4.91520E+001	 -2.44158E-005	  1.00868E-004	 -9.33575E-006	 -8.40513E-005
  5.24288E+001	  1.72934E-004	  1.99132E-004	  1.93380E-004	  1.26903E-004
  5.89824E+001	 -9.89961E-005	 -4.65760E-005	 -1.46175E-004	 -1.39731E-004
  6.55360E+001	  7.64663E-005	  1.72504E-004	  9.89443E-005	  4.55961E-006
  7.20896E+001	  2.45673E-004	  2.59853E-004	  3.19247E-004	  1.56084E-004
  7.86432E+001	  1.17308E-004	  1.75939E-004	  1.14171E-004	  1.66830E-004
  8.51968E+001	 -1.12310E-004	 -2.52810E-005	 -2.32489E-004	  3.33546E-005
  9.17504E+001	  2.99516E-005	  1.28427E-004	  1.09316E-004	 -1.03590E-005
  9.83040E+001	 -8.09896E-005	 -1.09553E-004	 -1.94810E-004	 -4.26114E-005
  1.04858E+002	 -2.43769E-004	 -2.69767E-004	 -2.37196E-004	 -2.51841E-004
  1.17965E+002	  1.97081E-005	  5.60160E-005	 -3.11903E-005	  2.56625E-006
  1.31072E+002	 -4.53138E-005	 -6.66202E-005	  1.28832E-006	 -1.53863E-004
  1.44179E+002	  1.19894E-004	  1.15413E-004	 -1.14325E-005	  1.75386E-004
  1.57286E+002	  4.43254E-005	  9.73558E-005	  1.47738E-006	  7.59857E-005
  1.70394E+002	  1.57828E-004	  9.82624E-005	  1.79681E-004	  1.21648E-004
  1.83501E+002	  5.67164E-005	  9.05297E-005	  4.15377E-005	  1.02483E-004
  1.96608E+002	 -9.67826E-005	 -9.19566E-005	 -2.70067E-004	  9.14640E-005
  2.09715E+002	  8.25503E-007	  2.30297E-005	  4.60312E-006	  1.69269E-005
  2.35930E+002	 -7.06347E-005	 -4.38028E-005	 -8.12155E-005	 -5.55561E-005
  2.62144E+002	 -9.66549E-005	 -3.66120E-005	 -1.05411E-004	 -9.92097E-005
  2.88358E+002	  1.12361E-006	  8.40540E-007	  8.79895E-006	  1.04454E-005
  3.14573E+002	  1.19696E-004	  1.30147E-004	  1.27713E-004	  8.23520E-005
  3.40787E+002	 -3.38050E-005	 -1.17170E-004	 -1.28921E-004	  5.01078E-005
  3.67002E+002	  7.15862E-005	 -3.15947E-005	  2.87324E-005	  1.18486E-004
  3.93216E+002	  1.54603E-005	 -2.54393E-005	  7.91623E-005	 -5.48348E-005
  4.19430E+002	 -7.74116E-005	 -1.39638E-004	 -2.28584E-005	 -1.18405E-004
  4.71859E+002	 -6.04213E-005	 -4.13711E-005	 -2.88003E-005	 -9.15348E-005
  5.24288E+002	 -9.88421E-006	  7.59536E-006	 -7.97583E-006	 -9.08585E-007
  5.76717E+002	 -2.30464E-005	 -1.30837E-005	 -1.66255E-005	 -1.63274E-005
  6.29146E+002	 -9.73087E-005	 -7.27480E-005	 -4.75812E-005	 -1.03949E-004
  6.81574E+002	 -4.85000E-005	 -5.87017E-005	 -6.03810E-005	 -5.30453E-005
  7.34003E+002	  9.13722E-006	  1.21428E-005	 -1.05751E-005	  2.89379E-006
  7.86432E+002	  5.32263E-005	  5.82306E-005	  8.13016E-005	  1.02112E-005
  8.38861E+002	 -3.91137E-005	 -2.71094E-005	 -5.50568E-005	 -7.86452E-006
  9.43718E+002	  1.78028E-005	  6.16696E-006	  3.61968E-005	 -7.35525E-006
  1.04858E+003	  7.93069E-005	  6.87030E-005	  6.96796E-005	  8.20412E-005
  1.15343E+003	  9.73971E-008	 -1.05195E-005	 -2.33946E-006	  6.42683E-006
  1.25829E+003	 -7.16285E-005	 -4.32373E-005	 -7.59054E-005	 -6.30538E-005
  1.36315E+003	  2.53238E-005	  2.06368E-005	  1.08438E-005	  2.89239E-005
  1.46801E+003	 -4.86887E-005	 -6.01113E-005	 -5.80440E-005	 -4.82613E-005
  1.57286E+003	 -8.84488E-006	 -2.15261E-006	  2.30775E-005	 -3.20070E-005
  1.67772E+003	  2.23391E-005	  1.14296E-005	  3.58643E-005	  2.70951E-005
  1.88744E+003	 -9.60912E-005	 -1.07203E-004	 -9.50138E-005	 -9.75455E-005
  2.09715E+003	  3.18543E-005	  6.01813E-005	  4.38959E-005	  1.21088E-005
  2.30687E+003	 -3.55756E-005	 -5.10892E-005	 -4.82170E-005	 -3.64332E-005
  2.51658E+003	 -3.09311E-005	 -3.71364E-005	 -4.23024E-005	 -2.34827E-005
  2.72630E+003	  3.74616E-005	  4.21841E-005	  2.97665E-005	  4.74167E-005
  2.93601E+003	  1.66426E-005	  9.07721E-006	  8.98772E-006	  3.07164E-005
  3.14573E+003	  4.05068E-006	  1.29612E-005	  1.07946E-005	 -1.08726E-005
  3.35544E+003	 -5.35590E-006	 -1.01037E-005	 -7.53255E-006	 -7.97557E-006
  3.77487E+003	  5.08626E-006	 -1.40723E-006	  1.18006E-005	 -1.02479E-005
  4.19430E+003	  5.25462E-005	  4.58853E-005	  5.21684E-005	  5.64844E-005
  4.61373E+003	 -3.34436E-005	 -1.90950E-005	 -4.05430E-005	 -3.74435E-005
  5.03317E+003	 -1.01613E-005	 -6.92803E-006	 -3.11780E-005	 -1.92191E-006
  5.45260E+003	 -2.66954E-005	 -3.97571E-005	 -3.18535E-005	 -2.03041E-005
  5.87203E+003	 -2.23798E-005	 -2.50538E-005	 -3.71204E-005	 -1.87471E-005
  6.29146E+003	 -8.21047E-006	  1.83607E-006	 -1.04044E-005	 -1.74867E-006
  6.71089E+003	  4.61387E-006	  4.72021E-006	 -5.60474E-006	  1.32437E-005
  7.54975E+003	  2.09383E-005	  1.70116E-005	  2.91697E-005	  1.36187E-005
  8.38861E+003	  2.96945E-005	  3.07039E-005	  3.25569E-005	  2.24485E-005
  9.22747E+003	  9.09037E-006	  1.16593E-005	  2.76790E-006	  1.21865E-005
  1.00663E+004	 -2.39283E-005	 -3.52535E-005	 -1.63835E-005	 -2.37142E-005
  1.09052E+004	 -1.70216E-005	 -1.87816E-005	 -3.17224E-006	 -2.43667E-005
  1.17441E+004	  5.05459E-006	  7.30441E-006	  1.20392E-005	 -4.69175E-006

"Count Rate"
       0.27344	      84.04800	     102.88092	      84.04800	     102.88092
       0.54688	      82.85974	     100.92487	      82.85974	     100.92487
       0.82031	      83.02427	     101.23564	      83.02427	     101.23564
       1.09375	      81.46308	      98.85913	      81.46308	      98.85913
       1.36719	      83.03889	     101.12962	      83.03889	     101.12962
       1.64063	      86.65850	     105.31227	      86.65850	     105.31227
       1.91406	      82.25282	     100.99433	      82.25282	     100.99433
       2.18750	      81.49233	      99.91211	      81.49233	      99.91211
       2.46094	      83.63850	     103.07469	      83.63850	     103.07469
       2.73438	      83.20708	     101.74385	      83.20708	     101.74385
       3.00781	      83.14492	     103.36353	      83.14492	     103.36353
       3.28125	      83.11567	     101.64148	      83.11567	     101.64148
       3.55469	      86.21976	     105.87897	      86.21976	     105.87897
       3.82813	      82.04076	     101.07843	      82.04076	     101.07843
       4.10156	      84.50867	     104.56641	      84.50867	     104.56641
