ALV-7004 or ALV-7004/FAST Data
Date :	"3/27/2010"
Time :	"10:37:24 AM"
Samplename : 	"BSA 1 g/l in YCl3 8.3mM"
SampMemo(0) : 	""
SampMemo(1) : 	""
SampMemo(2) : 	""
SampMemo(3) : 	""
SampMemo(4) : 	""
SampMemo(5) : 	""
SampMemo(6) : 	""
SampMemo(7) : 	""
SampMemo(8) : 	""
SampMemo(9) : 	""
Temperature [K] :	     295.66364
Viscosity [cp]  :	       0.94305
Refractive Index:	       1.33200
Wavelength [nm] :	     632.80000
Angle [°]       :	      40.00000
Duration [s]    :	        70
Runs            :	         1
Mode            :	"C-CH0/1+1/0"
MeanCR0 [kHz]   :	      84.20878
MeanCR1 [kHz]   :	     103.08326
MeanCR2 [kHz]   :	       0.00000
MeanCR3 [kHz]   :	       0.00000

"Correlation"
  3.12500E-006	  5.84837E-001	  5.59753E-001	 -2.00000E+000	 -2.00000E+000
  6.25000E-006	  5.73748E-001	  5.65038E-001	 -2.00000E+000	 -2.00000E+000
  9.37500E-006	  6.10692E-001	  5.94047E-001	 -2.00000E+000	 -2.00000E+000
  1.25000E-005	  5.72153E-001	  6.06204E-001	 -2.00000E+000	 -2.00000E+000
  1.56250E-005	  6.42634E-001	  5.98276E-001	 -2.00000E+000	 -2.00000E+000
  1.87500E-005	  6.20992E-001	  6.14659E-001	 -2.00000E+000	 -2.00000E+000
  2.18750E-005	  5.61593E-001	  5.43906E-001	 -2.00000E+000	 -2.00000E+000
  2.50000E-005	  6.52142E-001	  6.52671E-001	 -2.00000E+000	 -2.00000E+000
  2.81250E-005	  6.25215E-001	  6.08321E-001	 -2.00000E+000	 -2.00000E+000
  3.12500E-005	  6.17834E-001	  6.02525E-001	 -2.00000E+000	 -2.00000E+000
  3.43750E-005	  5.82705E-001	  5.86147E-001	 -2.00000E+000	 -2.00000E+000
  3.75000E-005	  6.03838E-001	  5.76124E-001	 -2.00000E+000	 -2.00000E+000
  4.06250E-005	  5.92479E-001	  5.93526E-001	 -2.00000E+000	  1.14615E+000
  4.37500E-005	  6.33415E-001	  6.23643E-001	 -2.00000E+000	  1.49171E+000
  4.68750E-005	  6.56101E-001	  5.81396E-001	 -2.00000E+000	 -4.95421E-001
  5.00000E-005	  6.30626E-001	  6.20731E-001	 -2.00000E+000	  2.12919E+000
  5.62500E-005	  6.01987E-001	  5.95375E-001	 -2.00000E+000	  1.14269E+000
  6.25000E-005	  6.12011E-001	  6.07262E-001	 -2.00000E+000	  1.06601E+000
  6.87500E-005	  6.03837E-001	  6.00409E-001	 -1.93433E+000	  1.23229E+000
  7.50000E-005	  5.96970E-001	  5.99609E-001	  1.77006E+000	  8.29438E-001
  8.12500E-005	  6.59413E-001	  6.27599E-001	  8.86167E-001	  8.72775E-001
  8.75000E-005	  6.07927E-001	  6.18884E-001	  9.32104E-001	  8.41088E-001
  9.37500E-005	  6.08579E-001	  6.15971E-001	  8.34007E-001	  8.21288E-001
  1.00000E-004	  6.06867E-001	  6.21252E-001	  7.25653E-001	  7.66006E-001
  1.12500E-004	  6.42250E-001	  6.46869E-001	  7.24961E-001	  7.40168E-001
  1.25000E-004	  6.32483E-001	  6.46875E-001	  6.90436E-001	  7.50057E-001
  1.37500E-004	  6.34796E-001	  6.33278E-001	  6.50086E-001	  7.28616E-001
  1.50000E-004	  6.07996E-001	  5.97101E-001	  6.70158E-001	  7.23908E-001
  1.62500E-004	  5.99279E-001	  5.98422E-001	  6.05501E-001	  7.01393E-001
  1.75000E-004	  6.11162E-001	  5.89055E-001	  6.27623E-001	  6.80506E-001
  1.87500E-004	  6.01786E-001	  5.98288E-001	  6.52325E-001	  6.78965E-001
  2.00000E-004	  6.08159E-001	  6.08523E-001	  6.40250E-001	  6.91305E-001
  2.25000E-004	  6.03506E-001	  6.02714E-001	  6.18996E-001	  6.94597E-001
  2.50000E-004	  6.20965E-001	  6.24165E-001	  6.20247E-001	  6.66770E-001
  2.75000E-004	  6.16076E-001	  6.02513E-001	  6.40707E-001	  6.86027E-001
  3.00000E-004	  6.11761E-001	  6.14465E-001	  6.03455E-001	  6.59001E-001
  3.25000E-004	  6.21755E-001	  6.25814E-001	  6.06359E-001	  6.74518E-001
  3.50000E-004	  6.11457E-001	  6.15581E-001	  6.13987E-001	  6.42790E-001
  3.75000E-004	  6.04266E-001	  6.15053E-001	  6.28355E-001	  6.47480E-001
  4.00000E-004	  6.16096E-001	  6.23669E-001	  6.19291E-001	  6.51653E-001
  4.50000E-004	  6.14874E-001	  6.09412E-001	  6.13395E-001	  6.62785E-001
  5.00000E-004	  6.15997E-001	  6.16311E-001	  6.08181E-001	  6.49605E-001
  5.50000E-004	  6.16313E-001	  6.18096E-001	  6.15359E-001	  6.48269E-001
  6.00000E-004	  6.11574E-001	  6.16673E-001	  6.36791E-001	  6.37570E-001
  6.50000E-004	  6.09331E-001	  6.10701E-001	  6.14027E-001	  6.34301E-001
  7.00000E-004	  6.15615E-001	  6.12974E-001	  5.98492E-001	  6.44068E-001
  7.50000E-004	  6.19926E-001	  6.10834E-001	  6.14776E-001	  6.39755E-001
  8.00000E-004	  6.21237E-001	  6.15009E-001	  6.32696E-001	  6.45585E-001
  9.00000E-004	  6.17234E-001	  6.21146E-001	  6.21995E-001	  6.42688E-001
  1.00000E-003	  6.19026E-001	  6.18489E-001	  6.11499E-001	  6.42433E-001
  1.10000E-003	  6.16022E-001	  6.07401E-001	  6.17987E-001	  6.40477E-001
  1.20000E-003	  6.08019E-001	  6.18440E-001	  6.04190E-001	  6.31571E-001
  1.30000E-003	  6.08011E-001	  6.02351E-001	  5.99261E-001	  6.30056E-001
  1.40000E-003	  6.11946E-001	  6.08800E-001	  6.01713E-001	  6.38007E-001
  1.50000E-003	  6.08293E-001	  6.00935E-001	  6.08272E-001	  6.38928E-001
  1.60000E-003	  6.12565E-001	  6.12988E-001	  6.10566E-001	  6.31894E-001
  1.80000E-003	  6.05841E-001	  6.06634E-001	  6.04601E-001	  6.31959E-001
  2.00000E-003	  6.10104E-001	  6.14595E-001	  6.01140E-001	  6.23495E-001
  2.20000E-003	  6.11881E-001	  6.13546E-001	  6.01824E-001	  6.20715E-001
  2.40000E-003	  6.16128E-001	  6.18918E-001	  6.05694E-001	  6.21066E-001
  2.60000E-003	  6.04967E-001	  6.04429E-001	  6.07969E-001	  6.20375E-001
  2.80000E-003	  6.03388E-001	  6.03582E-001	  6.16684E-001	  6.24679E-001
  3.00000E-003	  6.08917E-001	  6.07648E-001	  6.00753E-001	  6.27672E-001
  3.20000E-003	  6.01685E-001	  6.01296E-001	  6.10615E-001	  6.23646E-001
  3.60000E-003	  6.01050E-001	  6.01700E-001	  5.97801E-001	  6.13891E-001
  4.00000E-003	  5.94485E-001	  5.92282E-001	  6.04901E-001	  6.11893E-001
  4.40000E-003	  5.94526E-001	  5.89786E-001	  5.98451E-001	  6.09142E-001
  4.80000E-003	  5.92688E-001	  5.90050E-001	  5.83793E-001	  6.05784E-001
  5.20000E-003	  5.91255E-001	  5.89606E-001	  5.92646E-001	  6.02675E-001
  5.60000E-003	  5.89005E-001	  5.89846E-001	  5.90277E-001	  5.97314E-001
  6.00000E-003	  5.85212E-001	  5.85653E-001	  5.83858E-001	  5.95863E-001
  6.40000E-003	  5.79984E-001	  5.83318E-001	  5.88432E-001	  5.92336E-001
  7.20000E-003	  5.77277E-001	  5.73790E-001	  5.86561E-001	  5.87773E-001
  8.00000E-003	  5.75352E-001	  5.74617E-001	  5.76236E-001	  5.83967E-001
  8.80000E-003	  5.68494E-001	  5.68259E-001	  5.76181E-001	  5.79534E-001
  9.60000E-003	  5.65726E-001	  5.66526E-001	  5.73304E-001	  5.78495E-001
  1.04000E-002	  5.59265E-001	  5.60747E-001	  5.68937E-001	  5.72461E-001
  1.12000E-002	  5.54658E-001	  5.52140E-001	  5.65392E-001	  5.63836E-001
  1.20000E-002	  5.49697E-001	  5.48570E-001	  5.59828E-001	  5.65319E-001
  1.28000E-002	  5.46191E-001	  5.45313E-001	  5.54576E-001	  5.57567E-001
  1.44000E-002	  5.39120E-001	  5.37736E-001	  5.47248E-001	  5.50372E-001
  1.60000E-002	  5.29816E-001	  5.29535E-001	  5.37832E-001	  5.40711E-001
  1.76000E-002	  5.21229E-001	  5.20315E-001	  5.32338E-001	  5.32005E-001
  1.92000E-002	  5.12313E-001	  5.13537E-001	  5.20114E-001	  5.23322E-001
  2.08000E-002	  5.03706E-001	  5.05904E-001	  5.12453E-001	  5.14361E-001
  2.24000E-002	  4.95977E-001	  4.98099E-001	  5.07917E-001	  5.07420E-001
  2.40000E-002	  4.91608E-001	  4.91465E-001	  4.95887E-001	  4.99313E-001
  2.56000E-002	  4.82113E-001	  4.81282E-001	  4.87750E-001	  4.91005E-001
  2.88000E-002	  4.67396E-001	  4.67202E-001	  4.74202E-001	  4.77312E-001
  3.20000E-002	  4.53094E-001	  4.53691E-001	  4.58902E-001	  4.64531E-001
  3.52000E-002	  4.40237E-001	  4.41588E-001	  4.48196E-001	  4.48183E-001
  3.84000E-002	  4.26001E-001	  4.24219E-001	  4.33497E-001	  4.36642E-001
  4.16000E-002	  4.12761E-001	  4.14249E-001	  4.18913E-001	  4.21989E-001
  4.48000E-002	  3.99580E-001	  3.99501E-001	  4.06909E-001	  4.08600E-001
  4.80000E-002	  3.87916E-001	  3.86759E-001	  3.95867E-001	  3.97652E-001
  5.12000E-002	  3.77378E-001	  3.76817E-001	  3.83279E-001	  3.85589E-001
  5.76000E-002	  3.54547E-001	  3.54830E-001	  3.59674E-001	  3.63133E-001
  6.40000E-002	  3.33580E-001	  3.33086E-001	  3.38879E-001	  3.41748E-001
  7.04000E-002	  3.13167E-001	  3.13513E-001	  3.17722E-001	  3.22154E-001
  7.68000E-002	  2.95294E-001	  2.95175E-001	  3.00513E-001	  3.02908E-001
  8.32000E-002	  2.78382E-001	  2.78037E-001	  2.83137E-001	  2.83740E-001
  8.96000E-002	  2.62288E-001	  2.62409E-001	  2.66503E-001	  2.67181E-001
  9.60000E-002	  2.46843E-001	  2.46683E-001	  2.50775E-001	  2.51932E-001
  1.02400E-001	  2.32537E-001	  2.32432E-001	  2.36167E-001	  2.38187E-001
  1.15200E-001	  2.05795E-001	  2.05997E-001	  2.09079E-001	  2.10341E-001
  1.28000E-001	  1.82664E-001	  1.82672E-001	  1.85145E-001	  1.86690E-001
  1.40800E-001	  1.60912E-001	  1.60928E-001	  1.63201E-001	  1.64692E-001
  1.53600E-001	  1.44011E-001	  1.43697E-001	  1.44551E-001	  1.47529E-001
  1.66400E-001	  1.26614E-001	  1.26214E-001	  1.28077E-001	  1.30167E-001
  1.79200E-001	  1.12643E-001	  1.12461E-001	  1.13949E-001	  1.16649E-001
  1.92000E-001	  1.00469E-001	  1.00633E-001	  1.01505E-001	  1.03199E-001
  2.04800E-001	  8.93861E-002	  8.94946E-002	  9.07470E-002	  9.11973E-002
  2.30400E-001	  7.07528E-002	  7.07376E-002	  7.19257E-002	  7.18789E-002
  2.56000E-001	  5.62679E-002	  5.60310E-002	  5.63505E-002	  5.63965E-002
  2.81600E-001	  4.39920E-002	  4.37100E-002	  4.51303E-002	  4.47561E-002
  3.07200E-001	  3.42353E-002	  3.40631E-002	  3.54948E-002	  3.51116E-002
  3.32800E-001	  2.67766E-002	  2.60026E-002	  2.75135E-002	  2.76198E-002
  3.58400E-001	  2.10176E-002	  2.11252E-002	  2.18746E-002	  2.14935E-002
  3.84000E-001	  1.75637E-002	  1.74435E-002	  1.83367E-002	  1.70227E-002
  4.09600E-001	  1.42838E-002	  1.46427E-002	  1.44274E-002	  1.45943E-002
  4.60800E-001	  8.88872E-003	  9.23302E-003	  8.48330E-003	  9.35257E-003
  5.12000E-001	  5.26121E-003	  5.51085E-003	  5.02005E-003	  5.72728E-003
  5.63200E-001	  3.34170E-003	  3.00057E-003	  2.83778E-003	  2.89352E-003
  6.14400E-001	  1.63656E-003	  2.15853E-003	  1.35172E-003	  2.14899E-003
  6.65600E-001	  7.94911E-004	  1.38681E-003	  6.61820E-004	  1.29872E-003
  7.16800E-001	  2.98516E-004	  9.83872E-004	  1.04328E-003	  1.28736E-004
  7.68000E-001	  1.36391E-004	  5.18305E-004	  6.05774E-004	  5.10845E-004
  8.19200E-001	 -2.78189E-004	  3.58064E-005	 -4.31758E-004	  6.12150E-004
  9.21600E-001	  6.43707E-005	  5.74462E-004	 -4.93847E-004	  1.45958E-004
  1.02400E+000	  2.55200E-004	  1.36015E-004	  9.71307E-005	  2.50806E-004
  1.12640E+000	  1.00562E-003	  1.19859E-003	  5.58348E-004	  1.34200E-003
  1.22880E+000	  5.60681E-004	  8.03139E-004	  2.20894E-004	  6.85160E-004
  1.33120E+000	  1.09603E-003	  1.33596E-003	  7.49857E-004	  1.07033E-003
  1.43360E+000	  3.63865E-004	  7.42919E-004	  3.40670E-004	  2.93652E-004
  1.53600E+000	  4.10955E-004	  8.36185E-004	  4.86200E-004	  8.20965E-004
  1.63840E+000	  3.09484E-004	  6.22228E-004	  2.69987E-004	  4.39631E-004
  1.84320E+000	 -7.71935E-004	 -1.04638E-003	 -6.80853E-004	 -9.96551E-004
  2.04800E+000	  6.95269E-004	  7.04284E-004	  2.97182E-004	  6.81794E-004
  2.25280E+000	  4.92691E-004	  1.51250E-004	 -1.90731E-005	  1.57197E-004
  2.45760E+000	  2.97432E-004	  2.97131E-004	  1.71405E-004	  7.64728E-004
  2.66240E+000	 -2.39242E-004	  3.66590E-005	 -5.81832E-004	 -2.93293E-004
  2.86720E+000	  6.15686E-004	  5.61495E-004	  6.58837E-004	  6.28925E-004
  3.07200E+000	  9.89437E-004	  1.17996E-003	  9.65799E-004	  1.13411E-003
  3.27680E+000	  6.70832E-004	  1.18639E-003	  4.37897E-004	  8.29633E-004
  3.68640E+000	  4.08535E-004	  6.33045E-004	  8.07687E-004	  2.85881E-004
  4.09600E+000	  4.00515E-004	  6.58762E-004	  2.51568E-004	  4.85554E-004
  4.50560E+000	  1.10527E-005	 -3.26892E-004	  4.29391E-004	 -1.20010E-004
  4.91520E+000	 -4.24152E-004	 -5.55726E-004	 -8.98468E-004	 -3.29910E-004
  5.32480E+000	  3.12253E-004	  2.16686E-004	  5.10266E-004	 -2.46061E-004
  5.73440E+000	 -3.65863E-004	 -8.30983E-004	 -5.70948E-004	 -3.63911E-004
  6.14400E+000	  1.84717E-004	 -1.96797E-004	  5.52978E-004	  1.60790E-004
  6.55360E+000	 -3.28104E-005	 -2.35606E-004	 -8.09768E-005	 -5.25661E-005
  7.37280E+000	 -8.02382E-005	 -2.18241E-004	  1.27925E-005	 -3.62257E-004
  8.19200E+000	 -2.12224E-005	 -1.10736E-004	 -3.21852E-005	  7.25879E-005
  9.01120E+000	 -4.91013E-005	 -5.99202E-005	 -5.96365E-005	 -7.24316E-005
  9.83040E+000	 -4.49503E-004	 -2.98009E-004	 -5.29533E-004	 -3.48762E-004
  1.06496E+001	  2.19001E-004	  7.82500E-004	  1.89935E-005	  3.16286E-004
  1.14688E+001	 -6.16404E-004	 -3.69697E-004	 -5.11850E-004	 -6.83617E-004
  1.22880E+001	  2.17337E-004	  2.39991E-004	  1.27261E-004	  1.71517E-004
  1.31072E+001	 -2.32043E-004	 -2.01056E-004	 -2.39280E-004	 -2.89065E-004
  1.47456E+001	  1.92858E-004	  3.08717E-004	  2.78967E-004	  1.76418E-004
  1.63840E+001	  1.64888E-005	  2.65437E-004	 -2.59883E-004	  1.41264E-004
  1.80224E+001	  1.20151E-004	  1.67288E-004	  8.91942E-005	  2.16894E-004
  1.96608E+001	  4.04492E-004	  4.99179E-004	  3.88306E-004	  3.32548E-004
  2.12992E+001	  1.04679E-004	  1.25355E-004	  1.72041E-004	 -6.02165E-005
  2.29376E+001	  5.58794E-005	  2.95150E-005	  6.79719E-005	  1.53058E-004
  2.45760E+001	  7.98014E-005	  5.48054E-005	 -1.61979E-005	  2.04405E-004
  2.62144E+001	  1.26817E-004	  1.40310E-004	  5.46559E-005	  4.71470E-005
  2.94912E+001	  1.21108E-004	  2.76473E-004	  1.10200E-004	  6.37160E-005
  3.27680E+001	  6.16084E-005	  1.76149E-004	 -1.40413E-004	  1.34855E-004
  3.60448E+001	 -9.33463E-006	 -1.42590E-006	 -1.28365E-004	  8.06989E-005
  3.93216E+001	  8.58041E-005	 -4.93300E-006	  4.08773E-005	  1.78109E-004
  4.25984E+001	 -1.52792E-004	 -8.31557E-005	 -2.17673E-004	 -1.18223E-004
  4.58752E+001	 -2.10262E-005	  1.04629E-004	 -6.59030E-006	 -7.61542E-005
  4.91520E+001	 -1.00602E-004	 -6.05459E-005	 -1.65862E-004	 -6.19445E-005
  5.24288E+001	  8.30982E-005	  4.79082E-005	  1.39306E-004	  1.01500E-005
  5.89824E+001	  1.46183E-004	  1.55585E-004	  1.76701E-004	  9.10870E-005
  6.55360E+001	  1.32968E-004	  2.09764E-004	  1.79607E-004	  5.54448E-005
  7.20896E+001	  8.84050E-005	  1.24451E-004	  1.29694E-004	  1.59493E-005
  7.86432E+001	  2.01140E-005	  9.52494E-005	 -3.41545E-005	  7.15693E-005
  8.51968E+001	  9.30484E-005	  1.49693E-004	  6.07081E-005	  1.72855E-004
  9.17504E+001	 -9.16058E-005	  7.95156E-006	 -1.75710E-005	 -1.62358E-004
  9.83040E+001	 -2.07488E-004	 -2.27564E-004	 -2.08519E-004	 -2.01196E-004
  1.04858E+002	 -1.44406E-004	 -1.40528E-004	 -1.30832E-004	 -1.51453E-004
  1.17965E+002	  2.88972E-005	  8.26147E-005	  4.77407E-006	  7.96729E-006
  1.31072E+002	 -5.38669E-005	 -6.47284E-005	 -3.44568E-005	 -1.24163E-004
  1.44179E+002	  2.40701E-004	  2.22434E-004	  1.57830E-004	  2.42211E-004
  1.57286E+002	  3.49043E-005	  5.45421E-005	  1.41343E-005	  3.49711E-005
  1.70394E+002	  4.47187E-005	  1.15958E-005	  5.93158E-005	  2.89270E-005
  1.83501E+002	  1.28986E-004	  1.77178E-004	  1.21079E-004	  1.62797E-004
  1.96608E+002	 -4.48453E-005	 -7.95208E-005	 -1.68580E-004	  7.86369E-005
  2.09715E+002	  3.81171E-005	  1.64614E-005	  3.65692E-005	  3.97764E-005
  2.35930E+002	 -7.50004E-005	 -6.00586E-005	 -1.02944E-004	 -6.11009E-005
  2.62144E+002	 -1.34685E-004	 -9.00913E-005	 -1.11627E-004	 -1.53723E-004
  2.88358E+002	 -3.09741E-005	 -3.61541E-005	 -6.10021E-005	 -4.75431E-006
  3.14573E+002	  1.08011E-004	  1.05384E-004	  1.07234E-004	  7.91684E-005
  3.40787E+002	 -1.55150E-006	 -5.18841E-005	 -9.02490E-005	  7.73969E-005
  3.67002E+002	  2.14689E-005	 -1.40988E-005	 -4.31871E-005	  7.28546E-005
  3.93216E+002	  4.99307E-005	  1.89127E-005	  1.11169E-004	 -1.59142E-005
  4.19430E+002	 -8.34260E-005	 -1.29468E-004	 -3.40605E-005	 -1.14322E-004
  4.71859E+002	  3.82295E-006	  1.28245E-005	  2.86375E-005	 -2.47760E-005
  5.24288E+002	  4.24006E-006	  4.35737E-005	  8.40491E-007	  7.63263E-006
  5.76717E+002	 -2.23653E-005	 -2.93217E-005	 -1.84764E-005	 -2.37886E-005
  6.29146E+002	 -7.10034E-005	 -7.58967E-005	 -6.67863E-005	 -8.22916E-005
  6.81574E+002	 -1.60459E-005	  3.83906E-006	 -3.47847E-005	 -4.93098E-006
  7.34003E+002	  2.43936E-005	  4.16110E-005	  6.70701E-006	  7.61253E-006
  7.86432E+002	  4.73321E-005	  4.53476E-005	  8.17303E-005	  1.09731E-005
  8.38861E+002	 -5.86183E-005	 -6.28103E-005	 -5.76565E-005	 -4.17353E-005
  9.43718E+002	  3.09799E-005	  3.14667E-005	  3.24627E-005	  1.68252E-005
  1.04858E+003	  5.92963E-005	  5.34857E-005	  5.78139E-005	  5.72631E-005
  1.15343E+003	  3.81648E-006	 -1.00314E-005	  2.01071E-006	  3.98840E-006
  1.25829E+003	 -3.19967E-005	 -1.59108E-005	 -4.76701E-005	 -7.70234E-007
  1.36315E+003	 -7.70143E-006	 -4.30035E-006	 -2.87613E-005	  9.97273E-006
  1.46801E+003	 -1.25392E-005	 -9.14570E-006	 -2.07910E-005	  3.90392E-008
  1.57286E+003	 -5.34443E-006	  5.23985E-007	  9.53721E-006	 -1.34244E-005
  1.67772E+003	  1.17521E-005	  5.28680E-006	  1.80099E-005	  1.05608E-005
  1.88744E+003	 -8.96674E-005	 -9.04449E-005	 -8.40877E-005	 -9.62665E-005
  2.09715E+003	  3.79541E-005	  6.00151E-005	  3.02262E-005	  3.96787E-005
  2.30687E+003	 -1.31096E-005	 -2.38001E-005	 -2.87213E-005	 -7.45987E-006
  2.51658E+003	 -1.03782E-005	 -2.50342E-005	 -9.97119E-006	 -1.88391E-005
  2.72630E+003	  3.99963E-005	  4.12516E-005	  2.91468E-005	  5.34417E-005
  2.93601E+003	  2.88322E-005	  1.92897E-005	  2.53238E-005	  4.67384E-005
  3.14573E+003	 -1.00700E-006	  9.74857E-006	  1.03397E-005	 -7.76677E-006
  3.35544E+003	 -2.60988E-005	 -2.41229E-005	 -2.57269E-005	 -2.38912E-005
  3.77487E+003	 -3.61163E-006	 -2.49203E-006	  4.23077E-006	 -1.64205E-005
  4.19430E+003	  4.49702E-005	  4.02761E-005	  4.72513E-005	  4.67650E-005
  4.61373E+003	 -1.96958E-005	 -1.33773E-005	 -2.18534E-005	 -2.61640E-005
  5.03317E+003	  3.24138E-006	  3.41041E-006	 -3.71485E-006	  3.67705E-006
  5.45260E+003	 -2.89282E-005	 -4.37056E-005	 -3.35959E-005	 -1.97013E-005
  5.87203E+003	 -1.69940E-005	 -2.09662E-005	 -2.38941E-005	 -2.12204E-005
  6.29146E+003	  4.60428E-007	  9.55663E-007	  1.72673E-006	  3.99312E-007
  6.71089E+003	  6.41718E-006	  2.28681E-006	 -5.29350E-007	  1.26626E-005
  7.54975E+003	  2.09965E-005	  1.95516E-005	  2.49249E-005	  2.03119E-005
  8.38861E+003	  2.16833E-005	  1.85325E-005	  2.05261E-005	  2.09679E-005
  9.22747E+003	  2.73343E-006	  5.69686E-006	 -7.95072E-006	  1.17493E-005
  1.00663E+004	 -2.06491E-005	 -2.60598E-005	 -2.07918E-005	 -2.19426E-005
  1.09052E+004	 -2.32509E-005	 -2.56859E-005	 -1.59122E-005	 -2.68641E-005
  1.17441E+004	  5.87323E-006	  7.38622E-006	  8.63848E-006	  6.47543E-007

"Count Rate"
       0.27344	      85.58724	     105.75832	      85.58724	     105.75832
       0.54688	      84.09553	     102.89188	      84.09553	     102.89188
       0.82031	      85.11926	     103.43665	      85.11926	     103.43665
       1.09375	      81.55083	     100.22289	      81.55083	     100.22289
       1.36719	      85.24722	     104.97956	      85.24722	     104.97956
       1.64063	      83.69334	     103.76571	      83.69334	     103.76571
       1.91406	      83.97121	     101.65976	      83.97121	     101.65976
       2.18750	      83.67141	     103.00157	      83.67141	     103.00157
       2.46094	      86.27826	     105.02709	      86.27826	     105.02709
       2.73438	      84.38071	     102.26302	      84.38071	     102.26302
       3.00781	      85.23991	     105.81682	      85.23991	     105.81682
       3.28125	      85.35690	     102.93211	      85.35690	     102.93211
       3.55469	      85.12656	     103.82056	      85.12656	     103.82056
       3.82813	      82.76833	     102.03635	      82.76833	     102.03635
       4.10156	      85.68596	     104.85890	      85.68596	     104.85890
