ALV-7004 or ALV-7004/FAST Data
Date :	"3/27/2010"
Time :	"10:40:14 AM"
Samplename : 	"BSA 1 g/l in YCl3 8.3mM"
SampMemo(0) : 	""
SampMemo(1) : 	""
SampMemo(2) : 	""
SampMemo(3) : 	""
SampMemo(4) : 	""
SampMemo(5) : 	""
SampMemo(6) : 	""
SampMemo(7) : 	""
SampMemo(8) : 	""
SampMemo(9) : 	""
Temperature [K] :	     295.66422
Viscosity [cp]  :	       0.94305
Refractive Index:	       1.33200
Wavelength [nm] :	     632.80000
Angle [°]       :	      50.00000
Duration [s]    :	        70
Runs            :	         1
Mode            :	"C-CH0/1+1/0"
MeanCR0 [kHz]   :	      71.82121
MeanCR1 [kHz]   :	      87.75330
MeanCR2 [kHz]   :	       0.00000
MeanCR3 [kHz]   :	       0.00000

"Correlation"
  3.12500E-006	  3.35940E-001	  3.26852E-001	 -1.00000E+000	 -1.00000E+000
  6.25000E-006	  3.17037E-001	  3.42847E-001	 -1.00000E+000	 -1.00000E+000
  9.37500E-006	  3.05768E-001	  2.72324E-001	 -1.00000E+000	 -1.00000E+000
  1.25000E-005	  3.25398E-001	  3.21036E-001	 -1.00000E+000	 -1.00000E+000
  1.56250E-005	  3.39939E-001	  3.62477E-001	 -1.00000E+000	 -1.00000E+000
  1.87500E-005	  3.19582E-001	  3.21763E-001	 -1.00000E+000	 -1.00000E+000
  2.18750E-005	  2.79958E-001	  2.97043E-001	 -1.00000E+000	 -1.00000E+000
  2.50000E-005	  3.24671E-001	  3.39212E-001	 -1.00000E+000	 -1.00000E+000
  2.81250E-005	  3.51208E-001	  3.60296E-001	 -1.00000E+000	 -1.00000E+000
  3.12500E-005	  3.30487E-001	  3.33395E-001	 -1.00000E+000	 -1.00000E+000
  3.43750E-005	  2.63963E-001	  2.70870E-001	 -1.00000E+000	 -1.00000E+000
  3.75000E-005	  3.01769E-001	  3.12311E-001	 -1.00000E+000	 -1.00000E+000
  4.06250E-005	  3.07222E-001	  3.07949E-001	 -1.00000E+000	  6.72073E-001
  4.37500E-005	  3.18491E-001	  3.23944E-001	 -1.00000E+000	  8.19643E-001
  4.68750E-005	  3.34122E-001	  3.37758E-001	 -1.00000E+000	 -2.41319E-001
  5.00000E-005	  3.22308E-001	  3.14492E-001	 -1.00000E+000	  1.17935E+000
  5.62500E-005	  3.18855E-001	  3.30851E-001	 -1.00000E+000	  6.11676E-001
  6.25000E-005	  3.24307E-001	  3.29033E-001	 -1.00000E+000	  5.44733E-001
  6.87500E-005	  3.03587E-001	  3.04677E-001	 -9.62246E-001	  6.39048E-001
  7.50000E-005	  3.01042E-001	  3.20309E-001	  9.03230E-001	  4.28700E-001
  8.12500E-005	  3.42665E-001	  3.45028E-001	  4.66619E-001	  4.84336E-001
  8.75000E-005	  3.03950E-001	  3.01042E-001	  4.31975E-001	  4.53989E-001
  9.37500E-005	  2.94135E-001	  2.97770E-001	  4.01772E-001	  4.31080E-001
  1.00000E-004	  2.99315E-001	  3.15946E-001	  3.93111E-001	  3.86749E-001
  1.12500E-004	  3.37394E-001	  3.47027E-001	  3.70459E-001	  3.92551E-001
  1.25000E-004	  3.14674E-001	  2.97225E-001	  3.34037E-001	  3.92253E-001
  1.37500E-004	  3.22399E-001	  3.19763E-001	  3.27153E-001	  4.02220E-001
  1.50000E-004	  3.11402E-001	  2.92681E-001	  3.32483E-001	  3.54914E-001
  1.62500E-004	  3.02042E-001	  2.94862E-001	  3.13384E-001	  3.44501E-001
  1.75000E-004	  3.01042E-001	  2.96135E-001	  3.07166E-001	  3.83328E-001
  1.87500E-004	  3.04132E-001	  3.07767E-001	  3.42921E-001	  3.35724E-001
  2.00000E-004	  3.20672E-001	  3.25398E-001	  3.22156E-001	  3.42939E-001
  2.25000E-004	  3.08312E-001	  3.14220E-001	  3.23711E-001	  3.47328E-001
  2.50000E-004	  3.04814E-001	  3.25398E-001	  3.11052E-001	  3.49038E-001
  2.75000E-004	  3.09630E-001	  3.16492E-001	  3.03501E-001	  3.38104E-001
  3.00000E-004	  3.01178E-001	  3.13402E-001	  3.27708E-001	  3.41228E-001
  3.25000E-004	  3.06495E-001	  3.00406E-001	  2.92508E-001	  3.40187E-001
  3.50000E-004	  3.09585E-001	  3.11039E-001	  3.09386E-001	  3.22038E-001
  3.75000E-004	  3.13720E-001	  3.12220E-001	  3.08276E-001	  3.27394E-001
  4.00000E-004	  3.04336E-001	  3.08403E-001	  3.12218E-001	  3.34757E-001
  4.50000E-004	  2.99951E-001	  3.02769E-001	  3.05833E-001	  3.27803E-001
  5.00000E-004	  3.11766E-001	  3.14674E-001	  3.05167E-001	  3.28472E-001
  5.50000E-004	  3.01474E-001	  3.03360E-001	  3.10441E-001	  3.30369E-001
  6.00000E-004	  3.05154E-001	  3.05041E-001	  3.16382E-001	  3.24828E-001
  6.50000E-004	  2.98270E-001	  2.96634E-001	  3.24988E-001	  3.20439E-001
  7.00000E-004	  3.13992E-001	  3.14765E-001	  3.03390E-001	  3.21183E-001
  7.50000E-004	  3.11539E-001	  3.08312E-001	  2.96672E-001	  3.19137E-001
  8.00000E-004	  3.04541E-001	  3.07540E-001	  3.03224E-001	  3.24307E-001
  9.00000E-004	  3.06836E-001	  3.06313E-001	  3.07166E-001	  3.09096E-001
  1.00000E-003	  3.06529E-001	  3.03632E-001	  3.14855E-001	  3.20811E-001
  1.10000E-003	  3.08517E-001	  3.07335E-001	  3.09470E-001	  3.13076E-001
  1.20000E-003	  3.08176E-001	  3.09653E-001	  3.01669E-001	  3.14786E-001
  1.30000E-003	  3.00508E-001	  3.01360E-001	  3.01392E-001	  3.23675E-001
  1.40000E-003	  3.02655E-001	  3.11516E-001	  3.07110E-001	  3.12332E-001
  1.50000E-003	  2.99406E-001	  2.95862E-001	  3.06166E-001	  3.14005E-001
  1.60000E-003	  3.01394E-001	  3.00792E-001	  3.03376E-001	  3.13634E-001
  1.80000E-003	  3.00673E-001	  3.01235E-001	  2.99074E-001	  3.11253E-001
  2.00000E-003	  3.03280E-001	  3.01667E-001	  2.95146E-001	  3.10026E-001
  2.20000E-003	  3.05666E-001	  3.08210E-001	  2.96783E-001	  3.05703E-001
  2.40000E-003	  3.01292E-001	  3.02212E-001	  2.98699E-001	  3.06223E-001
  2.60000E-003	  2.93766E-001	  2.85229E-001	  3.05014E-001	  3.10621E-001
  2.80000E-003	  3.01548E-001	  2.99418E-001	  3.00420E-001	  2.97205E-001
  3.00000E-003	  3.05376E-001	  3.09732E-001	  2.94715E-001	  3.13819E-001
  3.20000E-003	  3.00755E-001	  3.02479E-001	  2.92015E-001	  3.05066E-001
  3.60000E-003	  2.94652E-001	  2.96498E-001	  2.93667E-001	  3.03378E-001
  4.00000E-003	  2.93922E-001	  2.98429E-001	  2.91537E-001	  2.98869E-001
  4.40000E-003	  2.88836E-001	  2.88410E-001	  2.93043E-001	  2.97395E-001
  4.80000E-003	  2.87370E-001	  2.86916E-001	  2.97373E-001	  2.95722E-001
  5.20000E-003	  2.88790E-001	  2.88961E-001	  2.91321E-001	  2.94643E-001
  5.60000E-003	  2.87458E-001	  2.84388E-001	  2.88573E-001	  2.93937E-001
  6.00000E-003	  2.85365E-001	  2.81684E-001	  2.83091E-001	  2.87851E-001
  6.40000E-003	  2.84733E-001	  2.83303E-001	  2.82122E-001	  2.88174E-001
  7.20000E-003	  2.80213E-001	  2.80378E-001	  2.83347E-001	  2.88140E-001
  8.00000E-003	  2.77061E-001	  2.77322E-001	  2.77216E-001	  2.83230E-001
  8.80000E-003	  2.75259E-001	  2.74136E-001	  2.77303E-001	  2.75293E-001
  9.60000E-003	  2.71568E-001	  2.70918E-001	  2.78243E-001	  2.75923E-001
  1.04000E-002	  2.69532E-001	  2.69876E-001	  2.76688E-001	  2.73040E-001
  1.12000E-002	  2.64728E-001	  2.64264E-001	  2.69762E-001	  2.69974E-001
  1.20000E-002	  2.62243E-001	  2.60444E-001	  2.62149E-001	  2.65195E-001
  1.28000E-002	  2.56690E-001	  2.57203E-001	  2.64233E-001	  2.61094E-001
  1.44000E-002	  2.50829E-001	  2.51434E-001	  2.56204E-001	  2.58455E-001
  1.60000E-002	  2.45476E-001	  2.45483E-001	  2.50360E-001	  2.50748E-001
  1.76000E-002	  2.40493E-001	  2.40849E-001	  2.46606E-001	  2.44658E-001
  1.92000E-002	  2.33747E-001	  2.35365E-001	  2.39754E-001	  2.39774E-001
  2.08000E-002	  2.28990E-001	  2.28947E-001	  2.34077E-001	  2.32838E-001
  2.24000E-002	  2.24958E-001	  2.23911E-001	  2.30441E-001	  2.25925E-001
  2.40000E-002	  2.18054E-001	  2.19244E-001	  2.24247E-001	  2.17860E-001
  2.56000E-002	  2.13392E-001	  2.14750E-001	  2.19058E-001	  2.15487E-001
  2.88000E-002	  2.04133E-001	  2.03757E-001	  2.10288E-001	  2.06661E-001
  3.20000E-002	  1.95143E-001	  1.94884E-001	  1.98722E-001	  1.98130E-001
  3.52000E-002	  1.86325E-001	  1.85789E-001	  1.88873E-001	  1.89271E-001
  3.84000E-002	  1.77335E-001	  1.77270E-001	  1.80468E-001	  1.80677E-001
  4.16000E-002	  1.69658E-001	  1.70293E-001	  1.72834E-001	  1.72039E-001
  4.48000E-002	  1.60815E-001	  1.61110E-001	  1.66444E-001	  1.62914E-001
  4.80000E-002	  1.53952E-001	  1.53780E-001	  1.57777E-001	  1.58372E-001
  5.12000E-002	  1.47589E-001	  1.47843E-001	  1.50475E-001	  1.48721E-001
  5.76000E-002	  1.33367E-001	  1.32833E-001	  1.36675E-001	  1.35565E-001
  6.40000E-002	  1.21826E-001	  1.21706E-001	  1.25008E-001	  1.24347E-001
  7.04000E-002	  1.09864E-001	  1.09988E-001	  1.13212E-001	  1.12861E-001
  7.68000E-002	  1.00851E-001	  1.00378E-001	  1.02467E-001	  1.04088E-001
  8.32000E-002	  9.19593E-002	  9.15108E-002	  9.42809E-002	  9.43924E-002
  8.96000E-002	  8.43916E-002	  8.40112E-002	  8.55137E-002	  8.69241E-002
  9.60000E-002	  7.77741E-002	  7.74377E-002	  7.98402E-002	  7.78024E-002
  1.02400E-001	  7.03794E-002	  6.98993E-002	  7.18751E-002	  7.09350E-002
  1.15200E-001	  5.83752E-002	  5.84858E-002	  5.92968E-002	  6.00041E-002
  1.28000E-001	  4.91472E-002	  4.89533E-002	  5.00034E-002	  5.01828E-002
  1.40800E-001	  4.11844E-002	  4.07707E-002	  4.11781E-002	  4.14420E-002
  1.53600E-001	  3.31898E-002	  3.32367E-002	  3.49073E-002	  3.46301E-002
  1.66400E-001	  2.85094E-002	  2.88801E-002	  2.94733E-002	  2.82475E-002
  1.79200E-001	  2.38566E-002	  2.42087E-002	  2.47998E-002	  2.42229E-002
  1.92000E-001	  1.95812E-002	  1.99180E-002	  1.98325E-002	  1.90805E-002
  2.04800E-001	  1.62081E-002	  1.66645E-002	  1.62123E-002	  1.66952E-002
  2.30400E-001	  1.15590E-002	  1.22840E-002	  1.22277E-002	  1.21908E-002
  2.56000E-001	  7.90995E-003	  8.29553E-003	  7.90666E-003	  7.83641E-003
  2.81600E-001	  5.59337E-003	  5.50039E-003	  6.18121E-003	  5.63893E-003
  3.07200E-001	  4.26344E-003	  4.22742E-003	  4.05952E-003	  3.69954E-003
  3.32800E-001	  2.77706E-003	  2.97575E-003	  2.20908E-003	  2.72456E-003
  3.58400E-001	  2.15847E-003	  2.46625E-003	  1.17099E-003	  1.99605E-003
  3.84000E-001	  1.17447E-003	  9.49300E-004	  1.62287E-003	  1.54303E-003
  4.09600E-001	  9.20951E-004	  5.60975E-004	  1.29411E-003	  8.42656E-004
  4.60800E-001	  4.47973E-004	  3.49703E-004	  6.54081E-004	  6.85539E-004
  5.12000E-001	  5.49396E-004	  4.19173E-004	  5.87680E-004	  2.42755E-004
  5.63200E-001	  1.82980E-004	  3.59600E-004	  1.03118E-004	  5.00405E-004
  6.14400E-001	 -1.16875E-004	 -2.38962E-005	  3.76054E-005	 -2.02877E-004
  6.65600E-001	  2.82887E-004	  4.74198E-004	  4.81286E-004	  4.47579E-004
  7.16800E-001	  4.38438E-004	  6.78238E-004	  9.80938E-004	  5.82704E-004
  7.68000E-001	  7.42711E-004	  4.35168E-004	  5.84634E-004	  9.86263E-004
  8.19200E-001	  4.89552E-004	  2.39705E-004	  5.32083E-004	  6.68319E-004
  9.21600E-001	  2.18227E-005	 -1.20339E-004	 -2.63715E-004	 -6.48695E-004
  1.02400E+000	 -4.40365E-004	 -7.64632E-004	 -3.78693E-004	 -8.42174E-004
  1.12640E+000	 -3.01189E-004	 -6.89436E-004	 -9.22268E-005	 -4.15829E-004
  1.22880E+000	 -1.81652E-004	 -3.90984E-004	 -1.43796E-006	 -5.56441E-004
  1.33120E+000	 -4.88223E-004	 -2.98103E-004	 -5.42935E-004	 -6.68330E-004
  1.43360E+000	 -4.67246E-004	 -3.91470E-004	 -5.46322E-004	 -3.37243E-004
  1.53600E+000	 -2.01507E-004	  3.61607E-004	 -5.85041E-004	  1.34540E-004
  1.63840E+000	  1.30357E-004	  5.04011E-004	 -3.69224E-004	  3.91730E-004
  1.84320E+000	  1.86533E-004	  1.16457E-004	 -1.25087E-004	  3.91732E-004
  2.04800E+000	 -1.73263E-004	 -8.80179E-005	 -4.66674E-004	  6.92802E-005
  2.25280E+000	  3.38869E-004	  3.21666E-004	  1.64044E-004	  6.60878E-004
  2.45760E+000	  4.14534E-004	 -1.04385E-005	  1.43317E-004	  3.86580E-004
  2.66240E+000	  3.67078E-005	  5.36321E-006	 -9.76560E-005	 -2.48712E-005
  2.86720E+000	 -2.88416E-004	 -1.78049E-004	 -2.90319E-004	 -4.15877E-004
  3.07200E+000	 -2.66305E-004	 -2.16183E-004	 -2.88841E-004	 -4.12161E-004
  3.27680E+000	  1.25166E-004	  3.85494E-004	 -5.61435E-005	  8.67562E-005
  3.68640E+000	  3.23952E-004	  2.81296E-004	  4.14610E-004	  5.25290E-004
  4.09600E+000	 -2.32042E-004	 -1.09019E-004	 -3.54417E-004	 -1.40851E-004
  4.50560E+000	 -2.84240E-004	 -3.17254E-004	 -2.15873E-004	 -4.46098E-004
  4.91520E+000	  5.63845E-005	  1.00519E-004	  2.66778E-004	 -1.09368E-004
  5.32480E+000	 -5.45998E-005	 -1.73180E-004	  7.82291E-006	 -6.06479E-005
  5.73440E+000	  3.06053E-004	  2.28981E-004	  3.83561E-004	  3.01693E-004
  6.14400E+000	 -1.16953E-004	 -1.85130E-005	 -5.69822E-004	 -6.20322E-005
  6.55360E+000	  4.70652E-004	  5.20132E-004	  3.55851E-004	  4.49941E-004
  7.37280E+000	  2.47825E-004	  1.95457E-004	  2.91857E-004	  3.39175E-004
  8.19200E+000	  1.05113E-004	  1.11559E-004	 -5.41789E-005	  6.91996E-005
  9.01120E+000	  1.32787E-004	  2.13663E-004	 -2.66156E-005	  1.90633E-004
  9.83040E+000	  8.83268E-005	  1.03118E-004	 -1.50747E-004	  2.89533E-004
  1.06496E+001	 -1.69266E-005	 -2.46211E-004	  8.12232E-005	 -3.44694E-005
  1.14688E+001	 -1.51611E-004	 -1.26661E-004	 -8.33725E-005	 -2.02124E-004
  1.22880E+001	 -2.80502E-004	 -3.48533E-004	 -3.09248E-004	 -1.79543E-004
  1.31072E+001	 -2.28114E-005	  1.00076E-005	  4.91191E-005	  3.44811E-005
  1.47456E+001	 -2.31379E-004	 -4.02304E-004	 -2.22952E-004	 -3.19420E-004
  1.63840E+001	 -9.61214E-005	 -7.33116E-005	 -5.17775E-005	 -4.66305E-005
  1.80224E+001	 -5.25900E-005	 -6.46196E-005	 -9.10370E-005	  1.69224E-005
  1.96608E+001	  8.63789E-005	  1.47216E-004	  5.60965E-005	  1.32914E-004
  2.12992E+001	 -1.24428E-004	 -2.47446E-004	 -2.34236E-004	 -3.60617E-005
  2.29376E+001	  7.40353E-005	  4.01900E-005	  1.24981E-004	 -4.54580E-005
  2.45760E+001	 -2.81595E-005	  7.58380E-005	 -1.94337E-004	  1.87883E-005
  2.62144E+001	 -1.52539E-005	  4.41886E-005	 -6.24176E-005	  7.81267E-005
  2.94912E+001	  2.59883E-005	 -3.75838E-006	 -1.41632E-005	  5.52852E-005
  3.27680E+001	  1.77565E-004	  2.49718E-004	  1.90332E-004	  2.22472E-004
  3.60448E+001	 -1.80630E-004	 -1.68149E-004	 -1.13070E-004	 -1.45637E-004
  3.93216E+001	  8.48695E-006	  5.67709E-006	 -3.73061E-005	 -1.44806E-005
  4.25984E+001	 -7.02560E-005	 -3.40138E-005	 -1.51171E-005	 -3.89553E-005
  4.58752E+001	  1.13199E-004	  1.48965E-004	  1.04562E-004	  4.21193E-005
  4.91520E+001	  1.58783E-004	  2.70688E-004	  1.85762E-004	  1.28450E-004
  5.24288E+001	  9.10438E-005	  1.45422E-004	  7.19691E-005	  1.44604E-004
  5.89824E+001	 -7.78785E-006	  4.47237E-005	 -2.15391E-005	  2.07941E-005
  6.55360E+001	  2.26393E-005	  8.74322E-006	  4.34769E-005	 -2.24646E-005
  7.20896E+001	 -6.30160E-005	 -8.87756E-006	 -7.97143E-005	 -4.66709E-005
  7.86432E+001	 -5.17312E-005	 -6.83875E-005	  2.58752E-005	 -8.12343E-005
  8.51968E+001	 -1.14649E-005	  3.88765E-005	  6.43055E-006	 -8.61105E-005
  9.17504E+001	  1.01116E-004	  1.48926E-004	  7.99937E-005	  9.61788E-005
  9.83040E+001	  1.43979E-004	  1.32731E-004	  1.90905E-004	  9.03650E-005
  1.04858E+002	  2.83255E-005	  5.43103E-005	  5.85943E-005	  2.54709E-005
  1.17965E+002	 -7.74124E-005	 -5.67444E-005	 -9.08724E-005	 -7.33310E-005
  1.31072E+002	  4.86788E-006	  3.85159E-005	  1.25123E-005	  8.00012E-006
  1.44179E+002	 -2.41548E-006	 -3.51655E-005	  1.00298E-005	 -4.04150E-005
  1.57286E+002	  1.50828E-005	 -1.87673E-005	  2.66235E-005	  2.94755E-005
  1.70394E+002	 -6.27950E-005	 -3.55743E-005	 -6.73196E-005	 -8.26734E-005
  1.83501E+002	 -4.71349E-005	 -1.21633E-005	 -2.20147E-005	 -5.55960E-005
  1.96608E+002	 -9.55167E-005	 -3.96808E-005	 -1.15766E-004	 -9.14809E-005
  2.09715E+002	  5.40270E-006	  1.01726E-005	  1.76281E-005	 -1.85357E-005
  2.35930E+002	 -2.87804E-005	 -3.75533E-005	  1.08845E-005	 -5.45148E-005
  2.62144E+002	  1.29372E-006	 -1.79504E-005	 -3.02089E-005	 -3.46650E-006
  2.88358E+002	 -9.52246E-005	 -1.05178E-004	 -9.22737E-005	 -7.31779E-005
  3.14573E+002	 -5.82192E-006	 -2.78724E-005	  3.17697E-006	 -4.61188E-005
  3.40787E+002	 -5.31969E-005	 -6.29505E-005	 -6.03191E-005	 -4.71169E-005
  3.67002E+002	 -2.10823E-005	 -3.56207E-005	 -3.37620E-006	 -5.54004E-005
  3.93216E+002	 -5.31386E-005	 -6.40055E-005	 -5.94815E-005	 -2.68322E-005
  4.19430E+002	 -1.22787E-005	 -1.59040E-005	 -2.65798E-005	 -1.12006E-005
  4.71859E+002	 -7.71785E-006	 -3.55846E-006	 -1.12241E-005	  2.79101E-006
  5.24288E+002	  3.23685E-005	  2.90436E-005	  4.83427E-005	  1.57542E-005
  5.76717E+002	 -3.96280E-006	  3.95246E-006	 -2.17707E-005	  3.95293E-007
  6.29146E+002	  1.13144E-005	  2.27659E-005	  2.34917E-005	  2.62002E-005
  6.81574E+002	  3.80012E-005	  5.18323E-005	  2.80668E-005	  4.31407E-005
  7.34003E+002	 -3.69993E-006	  8.42965E-007	 -2.44827E-005	  1.70007E-005
  7.86432E+002	 -4.10140E-006	  4.20394E-007	  1.52388E-006	 -1.57734E-006
  8.38861E+002	 -2.99495E-005	 -2.78448E-005	 -2.51854E-005	 -2.44081E-005
  9.43718E+002	 -3.13869E-005	 -1.92420E-005	 -3.73457E-005	 -2.42153E-005
  1.04858E+003	 -1.93325E-005	 -8.18757E-006	 -9.93076E-006	 -3.17917E-005
  1.15343E+003	 -1.40936E-005	 -2.13834E-005	 -1.72071E-005	 -1.61759E-005
  1.25829E+003	  1.49188E-005	  1.05070E-005	  1.62909E-005	  1.89811E-005
  1.36315E+003	 -1.10069E-005	 -5.84620E-006	 -1.50472E-006	 -1.58527E-005
  1.46801E+003	 -3.03036E-005	 -3.46150E-005	 -2.73652E-005	 -3.94655E-005
  1.57286E+003	  5.97976E-006	  9.20524E-006	  6.82866E-006	  8.22560E-006
  1.67772E+003	  2.05075E-005	  2.79490E-005	  2.87816E-005	  2.00409E-005
  1.88744E+003	  5.27615E-006	 -1.60296E-006	 -7.77363E-006	  1.95074E-006
  2.09715E+003	  3.69034E-006	  9.13389E-006	  5.70440E-006	 -1.65049E-005
  2.30687E+003	 -1.12468E-005	 -1.20786E-005	 -1.65774E-006	 -1.31931E-005
  2.51658E+003	  1.75925E-006	  4.10130E-006	 -4.26493E-006	  1.02685E-005
  2.72630E+003	 -2.58717E-006	  9.55727E-006	 -3.81441E-007	 -1.07818E-005
  2.93601E+003	  2.34007E-005	  2.41878E-005	  2.67364E-005	  1.29363E-005
  3.14573E+003	 -2.14359E-005	 -1.43601E-005	 -3.27650E-005	 -1.78176E-005
  3.35544E+003	 -1.35413E-005	 -8.88923E-006	 -2.18263E-007	 -1.91041E-005
  3.77487E+003	  2.71438E-006	  2.28156E-007	  9.37499E-006	  6.44138E-007
  4.19430E+003	 -5.83366E-006	 -7.02290E-006	 -3.75762E-006	  6.66775E-006
  4.61373E+003	  1.85759E-005	  1.41983E-005	  1.87024E-005	  1.89562E-005
  5.03317E+003	 -1.49212E-005	 -1.23925E-005	 -1.51840E-005	 -1.15627E-005
  5.45260E+003	  2.50675E-006	  1.95408E-006	 -7.11192E-006	  2.05023E-006
  5.87203E+003	 -1.17381E-005	 -5.25064E-006	 -3.63395E-006	 -1.65769E-005
  6.29146E+003	  1.71667E-005	  9.92749E-006	  9.03002E-006	  1.88413E-005
  6.71089E+003	  3.95120E-006	  2.42718E-006	 -4.66122E-006	  3.73103E-007
  7.54975E+003	  1.01221E-005	  1.64831E-005	  6.85701E-006	  6.93754E-006
  8.38861E+003	  1.35422E-006	 -4.79832E-006	  2.13499E-006	 -1.77815E-006
  9.22747E+003	 -5.91034E-006	 -2.85677E-006	 -4.80665E-006	 -5.42085E-006
  1.00663E+004	 -2.19835E-006	 -7.77365E-006	 -2.51627E-006	 -2.62547E-006
  1.09052E+004	 -1.36017E-006	  2.12460E-006	 -1.31252E-006	 -8.86333E-006
  1.17441E+004	 -3.15908E-006	 -2.89565E-006	 -5.78019E-006	 -8.55864E-009

"Count Rate"
       0.27344	      71.58046	      87.54329	      71.58046	      87.54329
       0.54688	      73.29520	      89.25438	      73.29520	      89.25438
       0.82031	      70.38855	      86.89249	      70.38855	      86.89249
       1.09375	      71.71208	      87.20692	      71.71208	      87.20692
       1.36719	      71.03935	      87.25811	      71.03935	      87.25811
       1.64063	      73.09046	      88.78273	      73.09046	      88.78273
       1.91406	      72.71022	      88.81564	      72.71022	      88.81564
       2.18750	      69.93519	      85.98211	      69.93519	      85.98211
       2.46094	      73.57673	      88.32937	      73.57673	      88.32937
       2.73438	      70.66642	      85.78468	      70.66642	      85.78468
       3.00781	      73.77782	      90.17939	      73.77782	      90.17939
       3.28125	      70.95160	      86.83765	      70.95160	      86.83765
       3.55469	      71.54025	      87.97106	      71.54025	      87.97106
       3.82813	      70.84557	      87.29467	      70.84557	      87.29467
       4.10156	      71.06494	      85.71156	      71.06494	      85.71156
