ALV-7004 or ALV-7004/FAST Data
Date :	"3/27/2010"
Time :	"10:55:42 AM"
Samplename : 	"BSA 1 g/l in YCl3 8.3mM"
SampMemo(0) : 	""
SampMemo(1) : 	""
SampMemo(2) : 	""
SampMemo(3) : 	""
SampMemo(4) : 	""
SampMemo(5) : 	""
SampMemo(6) : 	""
SampMemo(7) : 	""
SampMemo(8) : 	""
SampMemo(9) : 	""
Temperature [K] :	     295.67213
Viscosity [cp]  :	       0.94286
Refractive Index:	       1.33200
Wavelength [nm] :	     632.80000
Angle [°]       :	      80.00000
Duration [s]    :	        70
Runs            :	         1
Mode            :	"C-CH0/1+1/0"
MeanCR0 [kHz]   :	      56.65185
MeanCR1 [kHz]   :	      68.33362
MeanCR2 [kHz]   :	       0.00000
MeanCR3 [kHz]   :	       0.00000

"Correlation"
  3.12500E-006	  9.17883E-001	  9.65541E-001	 -3.00000E+000	 -3.00000E+000
  6.25000E-006	  8.26228E-001	  7.61975E-001	 -3.00000E+000	 -3.00000E+000
  9.37500E-006	  9.37147E-001	  9.79278E-001	 -3.00000E+000	 -3.00000E+000
  1.25000E-005	  9.08209E-001	  8.28528E-001	 -3.00000E+000	 -3.00000E+000
  1.56250E-005	  9.44324E-001	  9.35512E-001	 -3.00000E+000	 -3.00000E+000
  1.87500E-005	  9.57619E-001	  1.04606E+000	 -3.00000E+000	 -3.00000E+000
  2.18750E-005	  8.69569E-001	  8.36915E-001	 -3.00000E+000	 -3.00000E+000
  2.50000E-005	  9.95471E-001	  1.07801E+000	 -3.00000E+000	 -3.00000E+000
  2.81250E-005	  9.06349E-001	  9.49513E-001	 -3.00000E+000	 -3.00000E+000
  3.12500E-005	  9.58689E-001	  9.14082E-001	 -3.00000E+000	 -3.00000E+000
  3.43750E-005	  9.31804E-001	  9.39025E-001	 -3.00000E+000	 -2.99902E+000
  3.75000E-005	  9.10145E-001	  8.91799E-001	 -3.00000E+000	 -3.00000E+000
  4.06250E-005	  9.71048E-001	  1.02195E+000	 -3.00000E+000	  2.15860E+000
  4.37500E-005	  9.85886E-001	  1.00907E+000	 -3.00000E+000	  2.81300E+000
  4.68750E-005	  9.88760E-001	  9.18814E-001	 -3.00000E+000	 -4.93028E-001
  5.00000E-005	  1.00129E+000	  9.75946E-001	 -3.00000E+000	  3.73735E+000
  5.62500E-005	  9.66660E-001	  9.51443E-001	 -3.00000E+000	  1.98278E+000
  6.25000E-005	  9.65751E-001	  9.57437E-001	 -3.00000E+000	  1.84506E+000
  6.87500E-005	  9.46554E-001	  9.59265E-001	 -2.89039E+000	  2.00544E+000
  7.50000E-005	  9.41852E-001	  8.53389E-001	  2.78189E+000	  1.43531E+000
  8.12500E-005	  9.59743E-001	  9.79873E-001	  1.40598E+000	  1.50068E+000
  8.75000E-005	  9.20532E-001	  9.51865E-001	  1.31911E+000	  1.35566E+000
  9.37500E-005	  9.26012E-001	  8.99937E-001	  1.19720E+000	  1.41167E+000
  1.00000E-004	  9.41763E-001	  9.23351E-001	  1.10653E+000	  1.29953E+000
  1.12500E-004	  9.17588E-001	  9.05315E-001	  1.12486E+000	  1.23943E+000
  1.25000E-004	  9.16553E-001	  8.97094E-001	  9.91668E-001	  1.19411E+000
  1.37500E-004	  9.35873E-001	  9.39873E-001	  9.16900E-001	  1.17312E+000
  1.50000E-004	  9.15044E-001	  9.34961E-001	  1.05572E+000	  1.16594E+000
  1.62500E-004	  9.33907E-001	  9.41962E-001	  9.50308E-001	  1.05479E+000
  1.75000E-004	  9.07290E-001	  9.25004E-001	  9.48704E-001	  1.04759E+000
  1.87500E-004	  8.99086E-001	  9.10537E-001	  1.02941E+000	  1.09120E+000
  2.00000E-004	  9.38307E-001	  9.54604E-001	  9.97984E-001	  1.06827E+000
  2.25000E-004	  9.37075E-001	  9.15310E-001	  9.31044E-001	  1.09700E+000
  2.50000E-004	  9.46200E-001	  9.41183E-001	  8.60655E-001	  1.02142E+000
  2.75000E-004	  9.48570E-001	  9.25497E-001	  9.52021E-001	  9.76554E-001
  3.00000E-004	  9.22900E-001	  9.24089E-001	  9.09195E-001	  9.99511E-001
  3.25000E-004	  9.37522E-001	  9.39954E-001	  9.31752E-001	  9.99626E-001
  3.50000E-004	  9.12744E-001	  9.24278E-001	  9.52415E-001	  1.01567E+000
  3.75000E-004	  8.99109E-001	  8.73548E-001	  8.88139E-001	  9.92779E-001
  4.00000E-004	  9.23495E-001	  9.27655E-001	  9.43745E-001	  9.92473E-001
  4.50000E-004	  9.28360E-001	  9.33528E-001	  9.45710E-001	  1.02938E+000
  5.00000E-004	  9.28149E-001	  9.18125E-001	  9.47076E-001	  9.83529E-001
  5.50000E-004	  9.15280E-001	  9.03354E-001	  9.33601E-001	  9.86348E-001
  6.00000E-004	  9.12309E-001	  9.10383E-001	  9.13449E-001	  9.69903E-001
  6.50000E-004	  9.16145E-001	  9.27424E-001	  9.39966E-001	  9.43508E-001
  7.00000E-004	  9.10477E-001	  9.08372E-001	  8.87263E-001	  9.72447E-001
  7.50000E-004	  9.11458E-001	  9.11132E-001	  8.74771E-001	  9.48040E-001
  8.00000E-004	  9.06214E-001	  9.20673E-001	  9.08868E-001	  9.58134E-001
  9.00000E-004	  9.16934E-001	  9.12816E-001	  8.90270E-001	  9.76244E-001
  1.00000E-003	  9.04642E-001	  8.91386E-001	  8.89019E-001	  9.49315E-001
  1.10000E-003	  9.10910E-001	  9.11462E-001	  8.89704E-001	  9.41775E-001
  1.20000E-003	  9.05078E-001	  8.93712E-001	  9.11276E-001	  9.38104E-001
  1.30000E-003	  8.95102E-001	  8.99985E-001	  8.72831E-001	  9.09858E-001
  1.40000E-003	  8.90133E-001	  8.92514E-001	  8.69665E-001	  9.25719E-001
  1.50000E-003	  8.79295E-001	  8.79319E-001	  8.70297E-001	  9.30704E-001
  1.60000E-003	  8.88121E-001	  8.89987E-001	  8.76740E-001	  9.29270E-001
  1.80000E-003	  8.74918E-001	  8.67272E-001	  8.71360E-001	  9.11035E-001
  2.00000E-003	  8.63341E-001	  8.52456E-001	  8.80563E-001	  9.07527E-001
  2.20000E-003	  8.58059E-001	  8.49276E-001	  8.53671E-001	  8.91339E-001
  2.40000E-003	  8.52491E-001	  8.58141E-001	  8.44001E-001	  8.94195E-001
  2.60000E-003	  8.53459E-001	  8.44575E-001	  8.32008E-001	  8.83581E-001
  2.80000E-003	  8.45041E-001	  8.42124E-001	  8.44591E-001	  8.52131E-001
  3.00000E-003	  8.36065E-001	  8.32295E-001	  8.41776E-001	  8.71958E-001
  3.20000E-003	  8.33747E-001	  8.32737E-001	  8.34759E-001	  8.66194E-001
  3.60000E-003	  8.26627E-001	  8.26456E-001	  8.23766E-001	  8.47704E-001
  4.00000E-003	  8.12263E-001	  8.12390E-001	  8.08098E-001	  8.41032E-001
  4.40000E-003	  8.02386E-001	  8.06184E-001	  8.01803E-001	  8.32429E-001
  4.80000E-003	  7.89783E-001	  7.86961E-001	  7.93349E-001	  8.10101E-001
  5.20000E-003	  7.83287E-001	  7.81939E-001	  7.89105E-001	  8.05821E-001
  5.60000E-003	  7.74490E-001	  7.73089E-001	  7.72253E-001	  7.90841E-001
  6.00000E-003	  7.62667E-001	  7.64255E-001	  7.54659E-001	  7.90101E-001
  6.40000E-003	  7.50103E-001	  7.51710E-001	  7.52308E-001	  7.75907E-001
  7.20000E-003	  7.27811E-001	  7.30976E-001	  7.45003E-001	  7.49738E-001
  8.00000E-003	  7.09744E-001	  7.07435E-001	  7.12915E-001	  7.31799E-001
  8.80000E-003	  6.96514E-001	  6.99150E-001	  7.01359E-001	  7.10764E-001
  9.60000E-003	  6.75969E-001	  6.74629E-001	  6.77776E-001	  6.94457E-001
  1.04000E-002	  6.61959E-001	  6.65181E-001	  6.57476E-001	  6.74948E-001
  1.12000E-002	  6.43780E-001	  6.45075E-001	  6.46246E-001	  6.55532E-001
  1.20000E-002	  6.28717E-001	  6.25796E-001	  6.28209E-001	  6.39254E-001
  1.28000E-002	  6.08147E-001	  6.05770E-001	  6.15114E-001	  6.20970E-001
  1.44000E-002	  5.79112E-001	  5.78664E-001	  5.85350E-001	  5.88685E-001
  1.60000E-002	  5.47367E-001	  5.48233E-001	  5.59070E-001	  5.61230E-001
  1.76000E-002	  5.21145E-001	  5.18361E-001	  5.30813E-001	  5.32504E-001
  1.92000E-002	  4.91190E-001	  4.91448E-001	  4.94079E-001	  4.99719E-001
  2.08000E-002	  4.58989E-001	  4.56649E-001	  4.72271E-001	  4.79179E-001
  2.24000E-002	  4.42307E-001	  4.42396E-001	  4.48895E-001	  4.51812E-001
  2.40000E-002	  4.19338E-001	  4.16895E-001	  4.25012E-001	  4.30748E-001
  2.56000E-002	  3.97739E-001	  3.95927E-001	  4.04597E-001	  4.06460E-001
  2.88000E-002	  3.56277E-001	  3.54880E-001	  3.61795E-001	  3.67158E-001
  3.20000E-002	  3.23125E-001	  3.24159E-001	  3.25883E-001	  3.29948E-001
  3.52000E-002	  2.89589E-001	  2.89192E-001	  2.98505E-001	  2.94449E-001
  3.84000E-002	  2.57811E-001	  2.58597E-001	  2.63136E-001	  2.66902E-001
  4.16000E-002	  2.32165E-001	  2.32567E-001	  2.39305E-001	  2.39830E-001
  4.48000E-002	  2.10404E-001	  2.11827E-001	  2.10550E-001	  2.16846E-001
  4.80000E-002	  1.90091E-001	  1.87802E-001	  1.92628E-001	  1.96047E-001
  5.12000E-002	  1.70915E-001	  1.69227E-001	  1.76578E-001	  1.76297E-001
  5.76000E-002	  1.41642E-001	  1.40900E-001	  1.43957E-001	  1.42749E-001
  6.40000E-002	  1.13944E-001	  1.11608E-001	  1.17646E-001	  1.17698E-001
  7.04000E-002	  9.11721E-002	  9.04238E-002	  9.24961E-002	  9.41029E-002
  7.68000E-002	  7.39259E-002	  7.40368E-002	  7.74658E-002	  7.61325E-002
  8.32000E-002	  6.14016E-002	  6.06923E-002	  6.18050E-002	  6.11728E-002
  8.96000E-002	  5.11300E-002	  4.94396E-002	  5.17829E-002	  4.92199E-002
  9.60000E-002	  4.04537E-002	  4.05398E-002	  4.34541E-002	  4.05652E-002
  1.02400E-001	  3.30626E-002	  3.22883E-002	  3.64261E-002	  3.34444E-002
  1.15200E-001	  2.23404E-002	  2.04581E-002	  2.32991E-002	  2.37131E-002
  1.28000E-001	  1.66047E-002	  1.64080E-002	  1.56417E-002	  1.67328E-002
  1.40800E-001	  9.68184E-003	  8.24382E-003	  1.23424E-002	  1.11490E-002
  1.53600E-001	  6.96492E-003	  6.17879E-003	  6.64659E-003	  7.92582E-003
  1.66400E-001	  4.85478E-003	  5.74976E-003	  7.03500E-003	  3.93090E-003
  1.79200E-001	  3.48453E-003	  3.75449E-003	  4.55139E-003	  1.78317E-003
  1.92000E-001	  2.33401E-003	  2.14113E-003	  4.10217E-003	  1.15999E-004
  2.04800E-001	  1.78588E-003	  1.62837E-003	  3.08284E-003	 -1.78248E-003
  2.30400E-001	  5.90233E-004	  9.96275E-004	  9.25640E-004	 -1.30970E-004
  2.56000E-001	  3.05880E-004	  4.14511E-004	  8.05450E-004	 -8.15502E-004
  2.81600E-001	 -8.75247E-004	 -8.83144E-004	 -9.40015E-004	 -5.49735E-004
  3.07200E-001	 -6.88908E-004	 -9.71262E-004	  1.03765E-004	  6.73817E-005
  3.32800E-001	  4.67640E-004	  1.05503E-004	  5.66574E-004	 -1.66044E-003
  3.58400E-001	 -3.45894E-004	 -1.10884E-004	  2.09484E-003	 -1.68083E-003
  3.84000E-001	 -5.29053E-004	 -8.55619E-004	  1.64442E-003	 -1.06581E-003
  4.09600E-001	 -2.83338E-004	 -6.64649E-004	  3.81206E-004	 -1.42574E-003
  4.60800E-001	 -1.22947E-004	 -7.44776E-004	  1.77526E-004	  2.47181E-004
  5.12000E-001	 -2.81656E-004	 -6.50411E-004	 -1.38129E-005	 -2.31483E-004
  5.63200E-001	  1.94524E-005	  5.76990E-004	 -3.34851E-004	 -7.95053E-004
  6.14400E-001	  1.01969E-004	  5.40864E-004	  3.60522E-004	  1.00642E-003
  6.65600E-001	  1.61182E-005	  2.18706E-004	 -4.78994E-004	  1.34356E-003
  7.16800E-001	  2.71258E-004	  9.29213E-005	  9.22000E-005	 -1.29985E-004
  7.68000E-001	 -3.79912E-004	  1.80326E-004	 -7.48218E-004	  4.42026E-004
  8.19200E-001	 -1.99294E-004	 -4.12210E-004	  1.59261E-004	  5.53413E-004
  9.21600E-001	 -1.55946E-004	 -6.88745E-004	 -5.05967E-004	  1.27005E-004
  1.02400E+000	 -3.61865E-004	 -1.10974E-003	 -1.13823E-003	 -7.73980E-004
  1.12640E+000	 -2.21410E-005	  1.16583E-004	  5.92040E-004	  9.40833E-004
  1.22880E+000	  2.07555E-004	 -2.57310E-005	  8.55593E-005	  4.85504E-004
  1.33120E+000	  7.45272E-004	  9.87827E-004	  6.54186E-004	 -5.40596E-004
  1.43360E+000	 -4.75286E-005	  5.25277E-004	 -9.07868E-005	 -8.03220E-004
  1.53600E+000	  5.06318E-004	  1.06969E-003	  1.07128E-004	  2.39726E-004
  1.63840E+000	  4.76477E-004	  6.64694E-004	  6.59447E-004	  3.72886E-004
  1.84320E+000	  1.61411E-004	  5.44961E-006	 -2.18417E-004	 -1.46234E-004
  2.04800E+000	 -1.46175E-004	 -9.73357E-005	  4.69725E-004	 -3.27294E-004
  2.25280E+000	 -4.58986E-005	  7.40155E-005	  2.87897E-006	  2.66462E-004
  2.45760E+000	  4.28109E-004	  5.44293E-004	  3.35581E-005	  5.78853E-004
  2.66240E+000	 -3.91322E-005	 -4.36583E-004	  3.02484E-004	 -3.46125E-004
  2.86720E+000	  2.18042E-004	  8.05704E-004	  4.18098E-005	  3.98362E-004
  3.07200E+000	  4.35667E-004	  6.38001E-004	  1.83528E-004	  2.10897E-004
  3.27680E+000	  2.17315E-004	  2.70346E-004	  1.28338E-004	  4.47703E-004
  3.68640E+000	  4.34791E-004	  3.42701E-004	  8.58206E-004	 -2.94064E-004
  4.09600E+000	  7.11989E-005	  5.49995E-004	  2.33217E-004	  3.69568E-004
  4.50560E+000	  5.75153E-005	  2.43919E-004	  4.50440E-004	  1.51953E-004
  4.91520E+000	  4.41916E-004	  6.49128E-004	  6.95904E-004	  7.08576E-005
  5.32480E+000	  1.59317E-004	  1.31497E-004	  2.89029E-004	 -4.68586E-005
  5.73440E+000	 -2.74819E-004	 -1.79149E-004	 -5.46062E-004	 -3.45249E-004
  6.14400E+000	 -3.06859E-004	 -1.96265E-004	 -8.27240E-005	 -2.14686E-004
  6.55360E+000	 -1.30071E-004	 -2.11883E-004	  1.47944E-004	 -2.09531E-004
  7.37280E+000	  1.05226E-004	  5.10959E-004	  3.52483E-004	 -4.55280E-005
  8.19200E+000	  1.94403E-004	  1.42994E-004	 -2.55320E-004	  2.89706E-004
  9.01120E+000	  1.89556E-004	  4.14790E-005	  1.95049E-004	  1.95380E-005
  9.83040E+000	  7.42643E-005	  9.14043E-005	 -4.53301E-006	 -1.70169E-004
  1.06496E+001	 -5.34080E-005	 -1.89125E-004	  5.38008E-005	  3.29295E-005
  1.14688E+001	 -9.90505E-005	 -2.79180E-004	 -8.25213E-005	 -3.43945E-004
  1.22880E+001	 -1.28886E-004	 -3.16736E-004	 -3.43517E-004	 -3.47040E-004
  1.31072E+001	  2.04990E-004	  1.88588E-004	 -1.42554E-004	  9.49885E-005
  1.47456E+001	 -1.18153E-004	 -9.28585E-005	 -3.46785E-004	  1.04809E-004
  1.63840E+001	  6.18962E-005	 -2.60018E-005	  2.26740E-004	  2.67879E-005
  1.80224E+001	 -1.33805E-004	 -6.46629E-005	 -3.08378E-004	 -1.71449E-005
  1.96608E+001	  1.28913E-004	  1.92014E-004	 -1.79247E-005	  2.74152E-004
  2.12992E+001	  1.12696E-004	  8.87951E-005	 -1.25483E-004	  1.25083E-004
  2.29376E+001	  1.87024E-005	 -4.81507E-006	 -1.09888E-004	 -5.84098E-005
  2.45760E+001	  4.59098E-005	  3.79855E-005	  1.47603E-004	 -6.28948E-005
  2.62144E+001	  2.05427E-004	  2.67315E-004	  1.51436E-004	  1.68063E-004
  2.94912E+001	 -1.18251E-004	 -6.87695E-005	  4.35800E-005	 -8.89768E-005
  3.27680E+001	  2.01058E-004	  2.24229E-004	  8.76797E-007	  2.74261E-004
  3.60448E+001	 -1.67240E-005	  4.34397E-006	  3.62057E-005	 -3.24112E-005
  3.93216E+001	  1.05194E-004	  7.31203E-005	  1.12755E-004	 -1.41602E-004
  4.25984E+001	  1.64394E-004	  9.25331E-005	  1.98816E-004	  2.71122E-004
  4.58752E+001	 -1.92959E-004	 -2.73668E-004	 -1.20216E-004	 -1.64447E-004
  4.91520E+001	  9.78071E-006	 -7.12825E-005	  1.87755E-004	  3.41899E-007
  5.24288E+001	 -6.81354E-005	 -1.33385E-004	 -1.51424E-004	 -8.45471E-005
  5.89824E+001	 -5.11674E-005	  4.07681E-006	 -1.00501E-004	 -2.03267E-005
  6.55360E+001	 -8.17054E-005	 -1.63161E-004	 -5.47785E-005	 -2.74943E-005
  7.20896E+001	  1.00158E-004	  6.70731E-005	  1.37631E-004	  7.42950E-005
  7.86432E+001	 -5.77341E-005	 -4.54421E-005	 -3.30244E-005	 -1.32540E-004
  8.51968E+001	  1.09885E-005	 -7.68572E-006	 -3.10209E-005	  3.36788E-005
  9.17504E+001	 -1.36205E-005	 -1.10879E-004	 -1.14666E-004	 -6.21723E-005
  9.83040E+001	  9.21371E-005	  1.92485E-004	  1.91575E-004	 -4.41542E-005
  1.04858E+002	  2.45137E-005	  8.50836E-006	  1.32403E-005	  3.53545E-005
  1.17965E+002	  6.01558E-005	  2.42210E-005	 -1.71263E-005	  1.05240E-004
  1.31072E+002	  5.37386E-005	  3.96629E-005	  8.56186E-007	  1.05714E-004
  1.44179E+002	  2.69934E-005	  1.08425E-005	  2.78180E-006	 -4.27677E-005
  1.57286E+002	  3.79053E-005	 -4.25630E-005	  6.98269E-005	  1.90600E-005
  1.70394E+002	 -8.88459E-005	 -1.30772E-004	 -6.11811E-005	 -1.01911E-004
  1.83501E+002	 -1.21153E-005	  2.76164E-005	 -1.33847E-005	 -1.04961E-005
  1.96608E+002	  3.58345E-005	  3.56331E-005	 -3.50264E-005	  6.66277E-005
  2.09715E+002	  6.95515E-006	  3.17249E-005	 -2.25036E-007	  3.07093E-006
  2.35930E+002	  1.79661E-005	 -9.62140E-006	 -9.12265E-006	  3.63698E-005
  2.62144E+002	 -1.38054E-005	 -2.27291E-005	  2.30190E-005	 -3.46703E-005
  2.88358E+002	 -1.45006E-005	 -6.33338E-005	 -1.26527E-004	 -1.42494E-005
  3.14573E+002	 -4.86275E-005	 -4.57997E-005	  1.42139E-005	 -5.14061E-005
  3.40787E+002	  2.88595E-006	 -1.77932E-005	 -6.45573E-005	  2.23365E-005
  3.67002E+002	 -1.52238E-005	 -5.52668E-005	  5.30471E-006	  2.48409E-005
  3.93216E+002	  4.73818E-005	  5.37050E-005	  6.12475E-005	 -7.53071E-007
  4.19430E+002	  2.22018E-005	  2.36044E-005	  5.36043E-006	  7.91741E-006
  4.71859E+002	  4.12132E-006	 -2.17100E-005	 -4.24499E-006	 -4.79264E-006
  5.24288E+002	 -3.66337E-005	 -1.38425E-005	 -3.73308E-005	 -4.78087E-005
  5.76717E+002	  1.59952E-005	  9.41157E-006	 -1.75610E-005	  5.00708E-005
  6.29146E+002	 -4.17276E-005	 -5.16885E-005	 -2.15385E-005	 -7.14147E-005
  6.81574E+002	 -2.97073E-006	 -1.57582E-005	 -4.61752E-006	 -1.10719E-005
  7.34003E+002	 -2.04896E-005	 -3.88213E-005	  1.43482E-005	 -2.67989E-005
  7.86432E+002	  2.08588E-006	  1.08877E-005	  1.11955E-005	  2.50581E-005
  8.38861E+002	 -2.46292E-005	 -7.95427E-006	 -3.05001E-005	 -1.13954E-005
  9.43718E+002	  1.41281E-005	  3.25105E-005	 -3.61900E-006	  2.94933E-005
  1.04858E+003	 -1.59925E-005	 -3.02181E-005	 -2.18402E-005	 -5.78442E-006
  1.15343E+003	 -2.59428E-005	 -1.74860E-005	 -1.84120E-005	 -6.13622E-006
  1.25829E+003	  1.20013E-005	  4.29231E-005	  8.46733E-006	 -2.69910E-005
  1.36315E+003	  1.18368E-005	  3.38738E-005	 -1.40767E-006	  3.24765E-005
  1.46801E+003	 -2.50393E-005	 -4.25725E-005	 -2.48048E-005	 -2.62332E-005
  1.57286E+003	  2.22848E-005	  2.24009E-005	  2.20741E-005	  1.33214E-005
  1.67772E+003	  1.07539E-005	  1.44910E-005	 -2.46721E-006	  1.13521E-005
  1.88744E+003	  3.54271E-005	  3.79949E-005	  3.35930E-005	  1.46885E-005
  2.09715E+003	  1.84498E-005	  2.58737E-005	  2.31543E-005	  1.82108E-005
  2.30687E+003	  9.66176E-006	  5.84260E-006	  2.28707E-005	 -2.04885E-006
  2.51658E+003	  1.69326E-005	  4.19370E-005	  3.51646E-007	  1.22162E-005
  2.72630E+003	  1.21872E-005	 -8.72671E-006	  7.71256E-006	  2.88374E-005
  2.93601E+003	 -4.06738E-005	 -5.74753E-005	 -5.62713E-005	 -2.78156E-005
  3.14573E+003	 -1.10158E-005	  4.47080E-006	 -1.83649E-005	  1.08966E-005
  3.35544E+003	 -6.60681E-006	 -5.03233E-006	 -1.90893E-005	 -1.34406E-005
  3.77487E+003	  5.14523E-006	  3.76544E-006	  4.39171E-006	  3.51335E-006
  4.19430E+003	  1.66712E-005	  5.72529E-006	  6.89032E-006	  3.04338E-005
  4.61373E+003	  2.13223E-005	  1.86531E-005	  3.69206E-005	  8.85456E-006
  5.03317E+003	  2.08920E-005	  3.46488E-005	  2.23549E-005	  1.13265E-005
  5.45260E+003	 -4.14766E-007	 -6.65149E-006	 -2.37603E-006	 -2.62293E-006
  5.87203E+003	 -7.50397E-006	  5.00558E-006	 -1.36856E-006	 -4.99536E-006
  6.29146E+003	  1.44465E-005	  7.82482E-006	  1.33997E-005	  1.08663E-005
  6.71089E+003	 -3.88446E-006	 -3.16538E-006	 -7.67429E-006	  6.14930E-006
  7.54975E+003	  7.39978E-006	  9.10763E-007	 -1.03420E-006	  9.45124E-006
  8.38861E+003	 -1.25480E-005	 -1.82173E-005	 -2.21354E-005	 -6.79507E-006
  9.22747E+003	 -8.10327E-006	 -8.32123E-006	 -6.88173E-006	 -8.52503E-006
  1.00663E+004	  1.45786E-005	  1.91554E-005	  2.00556E-005	  8.85882E-006
  1.09052E+004	 -7.14750E-006	 -2.42352E-006	 -1.72914E-005	 -3.31566E-006
  1.17441E+004	  4.66343E-006	 -5.47770E-007	  4.14448E-006	  7.70278E-007

"Count Rate"
       0.27344	      57.09107	      68.81640	      57.09107	      68.81640
       0.54688	      56.63770	      68.41056	      56.63770	      68.41056
       0.82031	      56.44758	      67.77439	      56.44758	      67.77439
       1.09375	      56.69254	      67.42340	      56.69254	      67.42340
       1.36719	      56.14412	      67.82192	      56.14412	      67.82192
       1.64063	      57.13494	      70.06681	      57.13494	      70.06681
       1.91406	      54.94124	      67.08703	      54.94124	      67.08703
       2.18750	      56.54995	      67.88773	      56.54995	      67.88773
       2.46094	      56.44758	      68.48734	      56.44758	      68.48734
       2.73438	      56.39640	      68.27163	      56.39640	      68.27163
       3.00781	      57.25560	      68.09248	      57.25560	      68.09248
       3.28125	      55.42020	      66.36311	      55.42020	      66.36311
       3.55469	      57.09107	      69.41601	      57.09107	      69.41601
       3.82813	      55.40192	      68.06322	      55.40192	      68.06322
       4.10156	      56.68158	      68.53853	      56.68158	      68.53853
